        time       S(k,t)
  0.0000E+00   0.1000E+01
  0.5000E-02   0.9989E+00
  0.1000E-01   0.9957E+00
  0.1500E-01   0.9904E+00
  0.2000E-01   0.9829E+00
  0.2500E-01   0.9735E+00
  0.3000E-01   0.9620E+00
  0.3500E-01   0.9487E+00
  0.4000E-01   0.9335E+00
  0.4500E-01   0.9166E+00
  0.5000E-01   0.8982E+00
  0.5500E-01   0.8783E+00
  0.6000E-01   0.8570E+00
  0.6500E-01   0.8347E+00
  0.7000E-01   0.8113E+00
  0.7500E-01   0.7871E+00
  0.8000E-01   0.7624E+00
  0.8500E-01   0.7373E+00
  0.9000E-01   0.7122E+00
  0.9500E-01   0.6872E+00
  0.1000E+00   0.6627E+00
  0.1050E+00   0.6389E+00
  0.1100E+00   0.6159E+00
  0.1150E+00   0.5937E+00
  0.1200E+00   0.5726E+00
  0.1250E+00   0.5524E+00
  0.1300E+00   0.5331E+00
  0.1350E+00   0.5146E+00
  0.1400E+00   0.4969E+00
  0.1450E+00   0.4799E+00
  0.1500E+00   0.4635E+00
  0.1550E+00   0.4478E+00
  0.1600E+00   0.4327E+00
  0.1650E+00   0.4182E+00
  0.1700E+00   0.4043E+00
  0.1750E+00   0.3910E+00
  0.1800E+00   0.3784E+00
  0.1850E+00   0.3664E+00
  0.1900E+00   0.3550E+00
  0.1950E+00   0.3442E+00
  0.2000E+00   0.3339E+00
  0.2050E+00   0.3241E+00
  0.2100E+00   0.3148E+00
  0.2150E+00   0.3059E+00
  0.2200E+00   0.2974E+00
  0.2250E+00   0.2893E+00
  0.2300E+00   0.2815E+00
  0.2350E+00   0.2739E+00
  0.2400E+00   0.2667E+00
  0.2450E+00   0.2596E+00
  0.2500E+00   0.2529E+00
  0.2550E+00   0.2464E+00
  0.2600E+00   0.2401E+00
  0.2650E+00   0.2341E+00
  0.2700E+00   0.2284E+00
  0.2750E+00   0.2230E+00
  0.2800E+00   0.2179E+00
  0.2850E+00   0.2130E+00
  0.2900E+00   0.2084E+00
  0.2950E+00   0.2041E+00
  0.3000E+00   0.1999E+00
  0.3050E+00   0.1959E+00
  0.3100E+00   0.1920E+00
  0.3150E+00   0.1883E+00
  0.3200E+00   0.1846E+00
  0.3250E+00   0.1811E+00
  0.3300E+00   0.1776E+00
  0.3350E+00   0.1742E+00
  0.3400E+00   0.1709E+00
  0.3450E+00   0.1675E+00
  0.3500E+00   0.1642E+00
  0.3550E+00   0.1609E+00
  0.3600E+00   0.1576E+00
  0.3650E+00   0.1543E+00
  0.3700E+00   0.1510E+00
  0.3750E+00   0.1477E+00
  0.3800E+00   0.1444E+00
  0.3850E+00   0.1411E+00
  0.3900E+00   0.1379E+00
  0.3950E+00   0.1347E+00
  0.4000E+00   0.1315E+00
  0.4050E+00   0.1283E+00
  0.4100E+00   0.1252E+00
  0.4150E+00   0.1221E+00
  0.4200E+00   0.1191E+00
  0.4250E+00   0.1162E+00
  0.4300E+00   0.1134E+00
  0.4350E+00   0.1107E+00
  0.4400E+00   0.1081E+00
  0.4450E+00   0.1057E+00
  0.4500E+00   0.1033E+00
  0.4550E+00   0.1011E+00
  0.4600E+00   0.9889E-01
  0.4650E+00   0.9680E-01
  0.4700E+00   0.9476E-01
  0.4750E+00   0.9277E-01
  0.4800E+00   0.9081E-01
  0.4850E+00   0.8888E-01
  0.4900E+00   0.8696E-01
  0.4950E+00   0.8505E-01
  0.5000E+00   0.8316E-01
  0.5050E+00   0.8128E-01
  0.5100E+00   0.7942E-01
  0.5150E+00   0.7759E-01
  0.5200E+00   0.7579E-01
  0.5250E+00   0.7402E-01
  0.5300E+00   0.7231E-01
  0.5350E+00   0.7063E-01
  0.5400E+00   0.6901E-01
  0.5450E+00   0.6745E-01
  0.5500E+00   0.6595E-01
  0.5550E+00   0.6451E-01
  0.5600E+00   0.6314E-01
  0.5650E+00   0.6184E-01
  0.5700E+00   0.6063E-01
  0.5750E+00   0.5951E-01
  0.5800E+00   0.5848E-01
  0.5850E+00   0.5756E-01
  0.5900E+00   0.5675E-01
  0.5950E+00   0.5604E-01
  0.6000E+00   0.5543E-01
  0.6050E+00   0.5489E-01
  0.6100E+00   0.5440E-01
  0.6150E+00   0.5394E-01
  0.6200E+00   0.5347E-01
  0.6250E+00   0.5296E-01
  0.6300E+00   0.5240E-01
  0.6350E+00   0.5176E-01
  0.6400E+00   0.5104E-01
  0.6450E+00   0.5024E-01
  0.6500E+00   0.4939E-01
  0.6550E+00   0.4849E-01
  0.6600E+00   0.4756E-01
  0.6650E+00   0.4662E-01
  0.6700E+00   0.4567E-01
  0.6750E+00   0.4473E-01
  0.6800E+00   0.4379E-01
  0.6850E+00   0.4286E-01
  0.6900E+00   0.4193E-01
  0.6950E+00   0.4102E-01
  0.7000E+00   0.4012E-01
  0.7050E+00   0.3924E-01
  0.7100E+00   0.3838E-01
  0.7150E+00   0.3754E-01
  0.7200E+00   0.3674E-01
  0.7250E+00   0.3597E-01
  0.7300E+00   0.3524E-01
  0.7350E+00   0.3456E-01
  0.7400E+00   0.3393E-01
  0.7450E+00   0.3335E-01
  0.7500E+00   0.3281E-01
  0.7550E+00   0.3230E-01
  0.7600E+00   0.3183E-01
  0.7650E+00   0.3137E-01
  0.7700E+00   0.3093E-01
  0.7750E+00   0.3049E-01
  0.7800E+00   0.3005E-01
  0.7850E+00   0.2962E-01
  0.7900E+00   0.2920E-01
  0.7950E+00   0.2878E-01
  0.8000E+00   0.2836E-01
  0.8050E+00   0.2796E-01
  0.8100E+00   0.2757E-01
  0.8150E+00   0.2719E-01
  0.8200E+00   0.2681E-01
  0.8250E+00   0.2645E-01
  0.8300E+00   0.2610E-01
  0.8350E+00   0.2576E-01
  0.8400E+00   0.2543E-01
  0.8450E+00   0.2510E-01
  0.8500E+00   0.2478E-01
  0.8550E+00   0.2447E-01
  0.8600E+00   0.2416E-01
  0.8650E+00   0.2385E-01
  0.8700E+00   0.2354E-01
  0.8750E+00   0.2322E-01
  0.8800E+00   0.2290E-01
  0.8850E+00   0.2258E-01
  0.8900E+00   0.2225E-01
  0.8950E+00   0.2193E-01
  0.9000E+00   0.2161E-01
  0.9050E+00   0.2131E-01
  0.9100E+00   0.2103E-01
  0.9150E+00   0.2077E-01
  0.9200E+00   0.2054E-01
  0.9250E+00   0.2032E-01
  0.9300E+00   0.2013E-01
  0.9350E+00   0.1995E-01
  0.9400E+00   0.1979E-01
  0.9450E+00   0.1962E-01
  0.9500E+00   0.1947E-01
  0.9550E+00   0.1932E-01
  0.9600E+00   0.1917E-01
  0.9650E+00   0.1902E-01
  0.9700E+00   0.1887E-01
  0.9750E+00   0.1873E-01
  0.9800E+00   0.1859E-01
  0.9850E+00   0.1845E-01
  0.9900E+00   0.1831E-01
  0.9950E+00   0.1817E-01
  0.1000E+01   0.1804E-01
  0.1005E+01   0.1792E-01
  0.1010E+01   0.1781E-01
  0.1015E+01   0.1772E-01
  0.1020E+01   0.1763E-01
  0.1025E+01   0.1757E-01
  0.1030E+01   0.1751E-01
  0.1035E+01   0.1747E-01
  0.1040E+01   0.1742E-01
  0.1045E+01   0.1738E-01
  0.1050E+01   0.1734E-01
  0.1055E+01   0.1730E-01
  0.1060E+01   0.1724E-01
  0.1065E+01   0.1717E-01
  0.1070E+01   0.1708E-01
  0.1075E+01   0.1698E-01
  0.1080E+01   0.1686E-01
  0.1085E+01   0.1671E-01
  0.1090E+01   0.1655E-01
  0.1095E+01   0.1637E-01
  0.1100E+01   0.1619E-01
  0.1105E+01   0.1599E-01
  0.1110E+01   0.1579E-01
  0.1115E+01   0.1558E-01
  0.1120E+01   0.1538E-01
  0.1125E+01   0.1517E-01
  0.1130E+01   0.1496E-01
  0.1135E+01   0.1474E-01
  0.1140E+01   0.1453E-01
  0.1145E+01   0.1430E-01
  0.1150E+01   0.1407E-01
  0.1155E+01   0.1383E-01
  0.1160E+01   0.1358E-01
  0.1165E+01   0.1331E-01
  0.1170E+01   0.1303E-01
  0.1175E+01   0.1274E-01
  0.1180E+01   0.1244E-01
  0.1185E+01   0.1213E-01
  0.1190E+01   0.1182E-01
  0.1195E+01   0.1151E-01
  0.1200E+01   0.1122E-01
  0.1205E+01   0.1093E-01
  0.1210E+01   0.1066E-01
  0.1215E+01   0.1042E-01
  0.1220E+01   0.1020E-01
  0.1225E+01   0.1000E-01
  0.1230E+01   0.9841E-02
  0.1235E+01   0.9711E-02
  0.1240E+01   0.9614E-02
  0.1245E+01   0.9552E-02
  0.1250E+01   0.9524E-02
  0.1255E+01   0.9529E-02
  0.1260E+01   0.9563E-02
  0.1265E+01   0.9625E-02
  0.1270E+01   0.9711E-02
  0.1275E+01   0.9819E-02
  0.1280E+01   0.9945E-02
  0.1285E+01   0.1009E-01
  0.1290E+01   0.1024E-01
  0.1295E+01   0.1041E-01
  0.1300E+01   0.1057E-01
  0.1305E+01   0.1074E-01
  0.1310E+01   0.1090E-01
  0.1315E+01   0.1105E-01
  0.1320E+01   0.1118E-01
  0.1325E+01   0.1130E-01
  0.1330E+01   0.1141E-01
  0.1335E+01   0.1151E-01
  0.1340E+01   0.1160E-01
  0.1345E+01   0.1170E-01
  0.1350E+01   0.1180E-01
  0.1355E+01   0.1192E-01
  0.1360E+01   0.1207E-01
  0.1365E+01   0.1224E-01
  0.1370E+01   0.1243E-01
  0.1375E+01   0.1266E-01
  0.1380E+01   0.1290E-01
  0.1385E+01   0.1317E-01
  0.1390E+01   0.1344E-01
  0.1395E+01   0.1372E-01
  0.1400E+01   0.1399E-01
  0.1405E+01   0.1425E-01
  0.1410E+01   0.1448E-01
  0.1415E+01   0.1468E-01
  0.1420E+01   0.1486E-01
  0.1425E+01   0.1499E-01
  0.1430E+01   0.1509E-01
  0.1435E+01   0.1516E-01
  0.1440E+01   0.1520E-01
  0.1445E+01   0.1521E-01
  0.1450E+01   0.1519E-01
  0.1455E+01   0.1516E-01
  0.1460E+01   0.1510E-01
  0.1465E+01   0.1504E-01
  0.1470E+01   0.1496E-01
  0.1475E+01   0.1488E-01
  0.1480E+01   0.1480E-01
  0.1485E+01   0.1472E-01
  0.1490E+01   0.1464E-01
  0.1495E+01   0.1458E-01
  0.1500E+01   0.1453E-01
  0.1505E+01   0.1450E-01
  0.1510E+01   0.1449E-01
  0.1515E+01   0.1450E-01
  0.1520E+01   0.1453E-01
  0.1525E+01   0.1458E-01
  0.1530E+01   0.1465E-01
  0.1535E+01   0.1473E-01
  0.1540E+01   0.1482E-01
  0.1545E+01   0.1491E-01
  0.1550E+01   0.1500E-01
  0.1555E+01   0.1508E-01
  0.1560E+01   0.1515E-01
  0.1565E+01   0.1521E-01
  0.1570E+01   0.1523E-01
  0.1575E+01   0.1523E-01
  0.1580E+01   0.1520E-01
  0.1585E+01   0.1512E-01
  0.1590E+01   0.1500E-01
  0.1595E+01   0.1484E-01
  0.1600E+01   0.1462E-01
  0.1605E+01   0.1436E-01
  0.1610E+01   0.1406E-01
  0.1615E+01   0.1372E-01
  0.1620E+01   0.1335E-01
  0.1625E+01   0.1294E-01
  0.1630E+01   0.1252E-01
  0.1635E+01   0.1207E-01
  0.1640E+01   0.1162E-01
  0.1645E+01   0.1115E-01
  0.1650E+01   0.1067E-01
  0.1655E+01   0.1020E-01
  0.1660E+01   0.9726E-02
  0.1665E+01   0.9258E-02
  0.1670E+01   0.8797E-02
  0.1675E+01   0.8348E-02
  0.1680E+01   0.7911E-02
  0.1685E+01   0.7489E-02
  0.1690E+01   0.7083E-02
  0.1695E+01   0.6695E-02
  0.1700E+01   0.6323E-02
  0.1705E+01   0.5969E-02
  0.1710E+01   0.5630E-02
  0.1715E+01   0.5305E-02
  0.1720E+01   0.4993E-02
  0.1725E+01   0.4693E-02
  0.1730E+01   0.4403E-02
  0.1735E+01   0.4123E-02
  0.1740E+01   0.3854E-02
  0.1745E+01   0.3595E-02
  0.1750E+01   0.3347E-02
  0.1755E+01   0.3111E-02
  0.1760E+01   0.2888E-02
  0.1765E+01   0.2680E-02
  0.1770E+01   0.2486E-02
  0.1775E+01   0.2308E-02
  0.1780E+01   0.2144E-02
  0.1785E+01   0.1995E-02
  0.1790E+01   0.1859E-02
  0.1795E+01   0.1735E-02
  0.1800E+01   0.1621E-02
  0.1805E+01   0.1517E-02
  0.1810E+01   0.1422E-02
  0.1815E+01   0.1335E-02
  0.1820E+01   0.1257E-02
  0.1825E+01   0.1188E-02
  0.1830E+01   0.1126E-02
  0.1835E+01   0.1073E-02
  0.1840E+01   0.1026E-02
  0.1845E+01   0.9869E-03
  0.1850E+01   0.9536E-03
  0.1855E+01   0.9259E-03
  0.1860E+01   0.9031E-03
  0.1865E+01   0.8846E-03
  0.1870E+01   0.8699E-03
  0.1875E+01   0.8585E-03
  0.1880E+01   0.8502E-03
  0.1885E+01   0.8446E-03
  0.1890E+01   0.8416E-03
  0.1895E+01   0.8412E-03
  0.1900E+01   0.8435E-03
  0.1905E+01   0.8490E-03
  0.1910E+01   0.8578E-03
  0.1915E+01   0.8700E-03
  0.1920E+01   0.8857E-03
  0.1925E+01   0.9047E-03
  0.1930E+01   0.9269E-03
  0.1935E+01   0.9521E-03
  0.1940E+01   0.9806E-03
  0.1945E+01   0.1013E-02
  0.1950E+01   0.1049E-02
  0.1955E+01   0.1091E-02
  0.1960E+01   0.1138E-02
  0.1965E+01   0.1194E-02
  0.1970E+01   0.1258E-02
  0.1975E+01   0.1333E-02
  0.1980E+01   0.1418E-02
  0.1985E+01   0.1517E-02
  0.1990E+01   0.1629E-02
  0.1995E+01   0.1756E-02
  0.2000E+01   0.1898E-02
  0.2005E+01   0.2054E-02
  0.2010E+01   0.2225E-02
  0.2015E+01   0.2406E-02
  0.2020E+01   0.2595E-02
  0.2025E+01   0.2787E-02
  0.2030E+01   0.2977E-02
  0.2035E+01   0.3159E-02
  0.2040E+01   0.3327E-02
  0.2045E+01   0.3479E-02
  0.2050E+01   0.3609E-02
  0.2055E+01   0.3715E-02
  0.2060E+01   0.3797E-02
  0.2065E+01   0.3853E-02
  0.2070E+01   0.3884E-02
  0.2075E+01   0.3889E-02
  0.2080E+01   0.3871E-02
  0.2085E+01   0.3829E-02
  0.2090E+01   0.3764E-02
  0.2095E+01   0.3677E-02
  0.2100E+01   0.3570E-02
  0.2105E+01   0.3445E-02
  0.2110E+01   0.3305E-02
  0.2115E+01   0.3154E-02
  0.2120E+01   0.2999E-02
  0.2125E+01   0.2844E-02
  0.2130E+01   0.2693E-02
  0.2135E+01   0.2550E-02
  0.2140E+01   0.2416E-02
  0.2145E+01   0.2290E-02
  0.2150E+01   0.2172E-02
  0.2155E+01   0.2062E-02
  0.2160E+01   0.1962E-02
  0.2165E+01   0.1871E-02
  0.2170E+01   0.1792E-02
  0.2175E+01   0.1726E-02
  0.2180E+01   0.1674E-02
  0.2185E+01   0.1634E-02
  0.2190E+01   0.1607E-02
  0.2195E+01   0.1589E-02
  0.2200E+01   0.1579E-02
  0.2205E+01   0.1573E-02
  0.2210E+01   0.1569E-02
  0.2215E+01   0.1565E-02
  0.2220E+01   0.1560E-02
  0.2225E+01   0.1553E-02
  0.2230E+01   0.1544E-02
  0.2235E+01   0.1536E-02
  0.2240E+01   0.1527E-02
  0.2245E+01   0.1519E-02
  0.2250E+01   0.1512E-02
  0.2255E+01   0.1505E-02
  0.2260E+01   0.1497E-02
  0.2265E+01   0.1487E-02
  0.2270E+01   0.1474E-02
  0.2275E+01   0.1458E-02
  0.2280E+01   0.1438E-02
  0.2285E+01   0.1414E-02
  0.2290E+01   0.1386E-02
  0.2295E+01   0.1353E-02
  0.2300E+01   0.1314E-02
  0.2305E+01   0.1270E-02
  0.2310E+01   0.1218E-02
  0.2315E+01   0.1159E-02
  0.2320E+01   0.1092E-02
  0.2325E+01   0.1019E-02
  0.2330E+01   0.9422E-03
  0.2335E+01   0.8632E-03
  0.2340E+01   0.7847E-03
  0.2345E+01   0.7090E-03
  0.2350E+01   0.6379E-03
  0.2355E+01   0.5729E-03
  0.2360E+01   0.5150E-03
  0.2365E+01   0.4649E-03
  0.2370E+01   0.4227E-03
  0.2375E+01   0.3881E-03
  0.2380E+01   0.3607E-03
  0.2385E+01   0.3397E-03
  0.2390E+01   0.3246E-03
  0.2395E+01   0.3145E-03
  0.2400E+01   0.3087E-03
  0.2405E+01   0.3065E-03
  0.2410E+01   0.3072E-03
  0.2415E+01   0.3100E-03
  0.2420E+01   0.3144E-03
  0.2425E+01   0.3199E-03
  0.2430E+01   0.3257E-03
  0.2435E+01   0.3317E-03
  0.2440E+01   0.3373E-03
  0.2445E+01   0.3425E-03
  0.2450E+01   0.3473E-03
  0.2455E+01   0.3521E-03
  0.2460E+01   0.3577E-03
  0.2465E+01   0.3651E-03
  0.2470E+01   0.3761E-03
  0.2475E+01   0.3925E-03
  0.2480E+01   0.4166E-03
  0.2485E+01   0.4507E-03
  0.2490E+01   0.4967E-03
  0.2495E+01   0.5563E-03
  0.2500E+01   0.6301E-03
  0.2505E+01   0.7179E-03
  0.2510E+01   0.8182E-03
  0.2515E+01   0.9287E-03
  0.2520E+01   0.1046E-02
  0.2525E+01   0.1167E-02
  0.2530E+01   0.1289E-02
  0.2535E+01   0.1409E-02
  0.2540E+01   0.1525E-02
  0.2545E+01   0.1636E-02
  0.2550E+01   0.1740E-02
  0.2555E+01   0.1837E-02
  0.2560E+01   0.1924E-02
  0.2565E+01   0.2000E-02
  0.2570E+01   0.2061E-02
  0.2575E+01   0.2105E-02
  0.2580E+01   0.2130E-02
  0.2585E+01   0.2135E-02
  0.2590E+01   0.2119E-02
  0.2595E+01   0.2084E-02
  0.2600E+01   0.2030E-02
  0.2605E+01   0.1961E-02
  0.2610E+01   0.1881E-02
  0.2615E+01   0.1792E-02
  0.2620E+01   0.1700E-02
  0.2625E+01   0.1606E-02
  0.2630E+01   0.1515E-02
  0.2635E+01   0.1427E-02
  0.2640E+01   0.1346E-02
  0.2645E+01   0.1272E-02
  0.2650E+01   0.1205E-02
  0.2655E+01   0.1146E-02
  0.2660E+01   0.1094E-02
  0.2665E+01   0.1051E-02
  0.2670E+01   0.1016E-02
  0.2675E+01   0.9895E-03
  0.2680E+01   0.9727E-03
  0.2685E+01   0.9656E-03
  0.2690E+01   0.9684E-03
  0.2695E+01   0.9812E-03
  0.2700E+01   0.1004E-02
  0.2705E+01   0.1035E-02
  0.2710E+01   0.1075E-02
  0.2715E+01   0.1123E-02
  0.2720E+01   0.1178E-02
  0.2725E+01   0.1239E-02
  0.2730E+01   0.1305E-02
  0.2735E+01   0.1375E-02
  0.2740E+01   0.1448E-02
  0.2745E+01   0.1522E-02
  0.2750E+01   0.1595E-02
  0.2755E+01   0.1667E-02
  0.2760E+01   0.1736E-02
  0.2765E+01   0.1800E-02
  0.2770E+01   0.1859E-02
  0.2775E+01   0.1911E-02
  0.2780E+01   0.1958E-02
  0.2785E+01   0.1998E-02
  0.2790E+01   0.2033E-02
  0.2795E+01   0.2064E-02
  0.2800E+01   0.2090E-02
  0.2805E+01   0.2114E-02
  0.2810E+01   0.2135E-02
  0.2815E+01   0.2154E-02
  0.2820E+01   0.2171E-02
  0.2825E+01   0.2187E-02
  0.2830E+01   0.2201E-02
  0.2835E+01   0.2215E-02
  0.2840E+01   0.2227E-02
  0.2845E+01   0.2238E-02
  0.2850E+01   0.2249E-02
  0.2855E+01   0.2259E-02
  0.2860E+01   0.2268E-02
  0.2865E+01   0.2278E-02
  0.2870E+01   0.2288E-02
  0.2875E+01   0.2299E-02
  0.2880E+01   0.2312E-02
  0.2885E+01   0.2327E-02
  0.2890E+01   0.2345E-02
  0.2895E+01   0.2364E-02
  0.2900E+01   0.2384E-02
  0.2905E+01   0.2405E-02
  0.2910E+01   0.2425E-02
  0.2915E+01   0.2444E-02
  0.2920E+01   0.2461E-02
  0.2925E+01   0.2474E-02
  0.2930E+01   0.2482E-02
  0.2935E+01   0.2485E-02
  0.2940E+01   0.2482E-02
  0.2945E+01   0.2471E-02
  0.2950E+01   0.2453E-02
  0.2955E+01   0.2427E-02
  0.2960E+01   0.2392E-02
  0.2965E+01   0.2351E-02
  0.2970E+01   0.2305E-02
  0.2975E+01   0.2257E-02
  0.2980E+01   0.2209E-02
  0.2985E+01   0.2167E-02
  0.2990E+01   0.2132E-02
  0.2995E+01   0.2108E-02
  0.3000E+01   0.2097E-02
  0.3005E+01   0.2099E-02
  0.3010E+01   0.2115E-02
  0.3015E+01   0.2144E-02
  0.3020E+01   0.2185E-02
  0.3025E+01   0.2235E-02
  0.3030E+01   0.2294E-02
  0.3035E+01   0.2361E-02
  0.3040E+01   0.2434E-02
  0.3045E+01   0.2514E-02
  0.3050E+01   0.2599E-02
  0.3055E+01   0.2690E-02
  0.3060E+01   0.2785E-02
  0.3065E+01   0.2883E-02
  0.3070E+01   0.2984E-02
  0.3075E+01   0.3085E-02
  0.3080E+01   0.3186E-02
  0.3085E+01   0.3287E-02
  0.3090E+01   0.3387E-02
  0.3095E+01   0.3487E-02
  0.3100E+01   0.3589E-02
  0.3105E+01   0.3695E-02
  0.3110E+01   0.3806E-02
  0.3115E+01   0.3923E-02
  0.3120E+01   0.4050E-02
  0.3125E+01   0.4186E-02
  0.3130E+01   0.4333E-02
  0.3135E+01   0.4492E-02
  0.3140E+01   0.4663E-02
  0.3145E+01   0.4847E-02
  0.3150E+01   0.5044E-02
  0.3155E+01   0.5253E-02
  0.3160E+01   0.5472E-02
  0.3165E+01   0.5700E-02
  0.3170E+01   0.5931E-02
  0.3175E+01   0.6161E-02
  0.3180E+01   0.6380E-02
  0.3185E+01   0.6583E-02
  0.3190E+01   0.6763E-02
  0.3195E+01   0.6913E-02
  0.3200E+01   0.7029E-02
  0.3205E+01   0.7112E-02
  0.3210E+01   0.7161E-02
  0.3215E+01   0.7180E-02
  0.3220E+01   0.7175E-02
  0.3225E+01   0.7154E-02
  0.3230E+01   0.7125E-02
  0.3235E+01   0.7094E-02
  0.3240E+01   0.7064E-02
  0.3245E+01   0.7039E-02
  0.3250E+01   0.7020E-02
  0.3255E+01   0.7008E-02
  0.3260E+01   0.7003E-02
  0.3265E+01   0.7005E-02
  0.3270E+01   0.7015E-02
  0.3275E+01   0.7032E-02
  0.3280E+01   0.7055E-02
  0.3285E+01   0.7084E-02
  0.3290E+01   0.7118E-02
  0.3295E+01   0.7157E-02
  0.3300E+01   0.7203E-02
  0.3305E+01   0.7257E-02
  0.3310E+01   0.7319E-02
  0.3315E+01   0.7392E-02
  0.3320E+01   0.7477E-02
  0.3325E+01   0.7573E-02
  0.3330E+01   0.7681E-02
  0.3335E+01   0.7798E-02
  0.3340E+01   0.7922E-02
  0.3345E+01   0.8049E-02
  0.3350E+01   0.8177E-02
  0.3355E+01   0.8300E-02
  0.3360E+01   0.8416E-02
  0.3365E+01   0.8522E-02
  0.3370E+01   0.8616E-02
  0.3375E+01   0.8700E-02
  0.3380E+01   0.8772E-02
  0.3385E+01   0.8835E-02
  0.3390E+01   0.8891E-02
  0.3395E+01   0.8941E-02
  0.3400E+01   0.8989E-02
  0.3405E+01   0.9036E-02
  0.3410E+01   0.9084E-02
  0.3415E+01   0.9133E-02
  0.3420E+01   0.9182E-02
  0.3425E+01   0.9226E-02
  0.3430E+01   0.9262E-02
  0.3435E+01   0.9285E-02
  0.3440E+01   0.9289E-02
  0.3445E+01   0.9268E-02
  0.3450E+01   0.9217E-02
  0.3455E+01   0.9132E-02
  0.3460E+01   0.9009E-02
  0.3465E+01   0.8848E-02
  0.3470E+01   0.8648E-02
  0.3475E+01   0.8413E-02
  0.3480E+01   0.8144E-02
  0.3485E+01   0.7846E-02
  0.3490E+01   0.7524E-02
  0.3495E+01   0.7182E-02
  0.3500E+01   0.6826E-02
  0.3505E+01   0.6462E-02
  0.3510E+01   0.6096E-02
  0.3515E+01   0.5733E-02
  0.3520E+01   0.5379E-02
  0.3525E+01   0.5037E-02
  0.3530E+01   0.4712E-02
  0.3535E+01   0.4407E-02
  0.3540E+01   0.4125E-02
  0.3545E+01   0.3866E-02
  0.3550E+01   0.3633E-02
  0.3555E+01   0.3427E-02
  0.3560E+01   0.3247E-02
  0.3565E+01   0.3093E-02
  0.3570E+01   0.2964E-02
  0.3575E+01   0.2859E-02
  0.3580E+01   0.2774E-02
  0.3585E+01   0.2705E-02
  0.3590E+01   0.2649E-02
  0.3595E+01   0.2601E-02
  0.3600E+01   0.2557E-02
  0.3605E+01   0.2514E-02
  0.3610E+01   0.2472E-02
  0.3615E+01   0.2429E-02
  0.3620E+01   0.2385E-02
  0.3625E+01   0.2340E-02
  0.3630E+01   0.2297E-02
  0.3635E+01   0.2254E-02
  0.3640E+01   0.2212E-02
  0.3645E+01   0.2170E-02
  0.3650E+01   0.2128E-02
  0.3655E+01   0.2086E-02
  0.3660E+01   0.2041E-02
  0.3665E+01   0.1995E-02
  0.3670E+01   0.1945E-02
  0.3675E+01   0.1892E-02
  0.3680E+01   0.1837E-02
  0.3685E+01   0.1781E-02
  0.3690E+01   0.1724E-02
  0.3695E+01   0.1669E-02
  0.3700E+01   0.1617E-02
  0.3705E+01   0.1571E-02
  0.3710E+01   0.1533E-02
  0.3715E+01   0.1504E-02
  0.3720E+01   0.1487E-02
  0.3725E+01   0.1483E-02
  0.3730E+01   0.1490E-02
  0.3735E+01   0.1509E-02
  0.3740E+01   0.1537E-02
  0.3745E+01   0.1573E-02
  0.3750E+01   0.1613E-02
  0.3755E+01   0.1653E-02
  0.3760E+01   0.1691E-02
  0.3765E+01   0.1722E-02
  0.3770E+01   0.1743E-02
  0.3775E+01   0.1749E-02
  0.3780E+01   0.1738E-02
  0.3785E+01   0.1708E-02
  0.3790E+01   0.1660E-02
  0.3795E+01   0.1594E-02
  0.3800E+01   0.1514E-02
  0.3805E+01   0.1422E-02
  0.3810E+01   0.1324E-02
  0.3815E+01   0.1222E-02
  0.3820E+01   0.1122E-02
  0.3825E+01   0.1025E-02
  0.3830E+01   0.9361E-03
  0.3835E+01   0.8553E-03
  0.3840E+01   0.7836E-03
  0.3845E+01   0.7209E-03
  0.3850E+01   0.6662E-03
  0.3855E+01   0.6185E-03
  0.3860E+01   0.5766E-03
  0.3865E+01   0.5395E-03
  0.3870E+01   0.5064E-03
  0.3875E+01   0.4766E-03
  0.3880E+01   0.4497E-03
  0.3885E+01   0.4252E-03
  0.3890E+01   0.4022E-03
  0.3895E+01   0.3798E-03
  0.3900E+01   0.3570E-03
  0.3905E+01   0.3326E-03
  0.3910E+01   0.3056E-03
  0.3915E+01   0.2757E-03
  0.3920E+01   0.2430E-03
  0.3925E+01   0.2083E-03
  0.3930E+01   0.1730E-03
  0.3935E+01   0.1382E-03
  0.3940E+01   0.1056E-03
  0.3945E+01   0.7628E-04
  0.3950E+01   0.5137E-04
  0.3955E+01   0.3151E-04
  0.3960E+01   0.1704E-04
  0.3965E+01   0.7899E-05
  0.3970E+01   0.3659E-05
  0.3975E+01   0.3512E-05
  0.3980E+01   0.6318E-05
  0.3985E+01   0.1072E-04
  0.3990E+01   0.1539E-04
  0.3995E+01   0.1927E-04
  0.4000E+01   0.2185E-04
  0.4005E+01   0.2310E-04
  0.4010E+01   0.2335E-04
  0.4015E+01   0.2297E-04
  0.4020E+01   0.2234E-04
  0.4025E+01   0.2170E-04
  0.4030E+01   0.2114E-04
  0.4035E+01   0.2068E-04
  0.4040E+01   0.2022E-04
  0.4045E+01   0.1964E-04
  0.4050E+01   0.1894E-04
  0.4055E+01   0.1816E-04
  0.4060E+01   0.1746E-04
  0.4065E+01   0.1701E-04
  0.4070E+01   0.1700E-04
  0.4075E+01   0.1759E-04
  0.4080E+01   0.1892E-04
  0.4085E+01   0.2115E-04
  0.4090E+01   0.2444E-04
  0.4095E+01   0.2901E-04
  0.4100E+01   0.3518E-04
  0.4105E+01   0.4333E-04
  0.4110E+01   0.5400E-04
  0.4115E+01   0.6777E-04
  0.4120E+01   0.8534E-04
  0.4125E+01   0.1074E-03
  0.4130E+01   0.1345E-03
  0.4135E+01   0.1668E-03
  0.4140E+01   0.2044E-03
  0.4145E+01   0.2465E-03
  0.4150E+01   0.2924E-03
  0.4155E+01   0.3406E-03
  0.4160E+01   0.3900E-03
  0.4165E+01   0.4394E-03
  0.4170E+01   0.4876E-03
  0.4175E+01   0.5342E-03
  0.4180E+01   0.5790E-03
  0.4185E+01   0.6221E-03
  0.4190E+01   0.6641E-03
  0.4195E+01   0.7058E-03
  0.4200E+01   0.7479E-03
  0.4205E+01   0.7914E-03
  0.4210E+01   0.8370E-03
  0.4215E+01   0.8850E-03
  0.4220E+01   0.9356E-03
  0.4225E+01   0.9889E-03
  0.4230E+01   0.1044E-02
  0.4235E+01   0.1102E-02
  0.4240E+01   0.1161E-02
  0.4245E+01   0.1220E-02
  0.4250E+01   0.1280E-02
  0.4255E+01   0.1338E-02
  0.4260E+01   0.1395E-02
  0.4265E+01   0.1449E-02
  0.4270E+01   0.1501E-02
  0.4275E+01   0.1550E-02
  0.4280E+01   0.1598E-02
  0.4285E+01   0.1646E-02
  0.4290E+01   0.1695E-02
  0.4295E+01   0.1745E-02
  0.4300E+01   0.1798E-02
  0.4305E+01   0.1853E-02
  0.4310E+01   0.1910E-02
  0.4315E+01   0.1966E-02
  0.4320E+01   0.2019E-02
  0.4325E+01   0.2069E-02
  0.4330E+01   0.2113E-02
  0.4335E+01   0.2150E-02
  0.4340E+01   0.2180E-02
  0.4345E+01   0.2201E-02
  0.4350E+01   0.2214E-02
  0.4355E+01   0.2219E-02
  0.4360E+01   0.2217E-02
  0.4365E+01   0.2207E-02
  0.4370E+01   0.2190E-02
  0.4375E+01   0.2168E-02
  0.4380E+01   0.2142E-02
  0.4385E+01   0.2113E-02
  0.4390E+01   0.2084E-02
  0.4395E+01   0.2056E-02
  0.4400E+01   0.2034E-02
  0.4405E+01   0.2017E-02
  0.4410E+01   0.2008E-02
  0.4415E+01   0.2009E-02
  0.4420E+01   0.2020E-02
  0.4425E+01   0.2040E-02
  0.4430E+01   0.2069E-02
  0.4435E+01   0.2104E-02
  0.4440E+01   0.2142E-02
  0.4445E+01   0.2179E-02
  0.4450E+01   0.2213E-02
  0.4455E+01   0.2239E-02
  0.4460E+01   0.2255E-02
  0.4465E+01   0.2259E-02
  0.4470E+01   0.2250E-02
  0.4475E+01   0.2226E-02
  0.4480E+01   0.2187E-02
  0.4485E+01   0.2134E-02
  0.4490E+01   0.2067E-02
  0.4495E+01   0.1988E-02
  0.4500E+01   0.1899E-02
  0.4505E+01   0.1802E-02
  0.4510E+01   0.1700E-02
  0.4515E+01   0.1593E-02
  0.4520E+01   0.1485E-02
  0.4525E+01   0.1376E-02
  0.4530E+01   0.1268E-02
  0.4535E+01   0.1162E-02
  0.4540E+01   0.1058E-02
  0.4545E+01   0.9575E-03
  0.4550E+01   0.8617E-03
  0.4555E+01   0.7718E-03
  0.4560E+01   0.6891E-03
  0.4565E+01   0.6148E-03
  0.4570E+01   0.5498E-03
  0.4575E+01   0.4949E-03
  0.4580E+01   0.4507E-03
  0.4585E+01   0.4173E-03
  0.4590E+01   0.3947E-03
  0.4595E+01   0.3825E-03
  0.4600E+01   0.3803E-03
  0.4605E+01   0.3875E-03
  0.4610E+01   0.4034E-03
  0.4615E+01   0.4271E-03
  0.4620E+01   0.4576E-03
  0.4625E+01   0.4940E-03
  0.4630E+01   0.5349E-03
  0.4635E+01   0.5789E-03
  0.4640E+01   0.6242E-03
  0.4645E+01   0.6691E-03
  0.4650E+01   0.7119E-03
  0.4655E+01   0.7511E-03
  0.4660E+01   0.7853E-03
  0.4665E+01   0.8138E-03
  0.4670E+01   0.8360E-03
  0.4675E+01   0.8516E-03
  0.4680E+01   0.8608E-03
  0.4685E+01   0.8640E-03
  0.4690E+01   0.8616E-03
  0.4695E+01   0.8548E-03
  0.4700E+01   0.8445E-03
  0.4705E+01   0.8322E-03
  0.4710E+01   0.8191E-03
  0.4715E+01   0.8069E-03
  0.4720E+01   0.7969E-03
  0.4725E+01   0.7907E-03
  0.4730E+01   0.7895E-03
  0.4735E+01   0.7944E-03
  0.4740E+01   0.8060E-03
  0.4745E+01   0.8247E-03
  0.4750E+01   0.8506E-03
  0.4755E+01   0.8836E-03
  0.4760E+01   0.9232E-03
  0.4765E+01   0.9692E-03
  0.4770E+01   0.1021E-02
  0.4775E+01   0.1079E-02
  0.4780E+01   0.1142E-02
  0.4785E+01   0.1212E-02
  0.4790E+01   0.1287E-02
  0.4795E+01   0.1367E-02
  0.4800E+01   0.1453E-02
  0.4805E+01   0.1544E-02
  0.4810E+01   0.1640E-02
  0.4815E+01   0.1741E-02
  0.4820E+01   0.1848E-02
  0.4825E+01   0.1960E-02
  0.4830E+01   0.2077E-02
  0.4835E+01   0.2201E-02
  0.4840E+01   0.2332E-02
  0.4845E+01   0.2469E-02
  0.4850E+01   0.2612E-02
  0.4855E+01   0.2760E-02
  0.4860E+01   0.2914E-02
  0.4865E+01   0.3071E-02
  0.4870E+01   0.3229E-02
  0.4875E+01   0.3384E-02
  0.4880E+01   0.3533E-02
  0.4885E+01   0.3670E-02
  0.4890E+01   0.3792E-02
  0.4895E+01   0.3897E-02
  0.4900E+01   0.3984E-02
  0.4905E+01   0.4054E-02
  0.4910E+01   0.4110E-02
  0.4915E+01   0.4155E-02
  0.4920E+01   0.4194E-02
  0.4925E+01   0.4229E-02
  0.4930E+01   0.4262E-02
  0.4935E+01   0.4294E-02
  0.4940E+01   0.4323E-02
  0.4945E+01   0.4346E-02
  0.4950E+01   0.4358E-02
  0.4955E+01   0.4353E-02
  0.4960E+01   0.4328E-02
  0.4965E+01   0.4278E-02
  0.4970E+01   0.4201E-02
  0.4975E+01   0.4096E-02
  0.4980E+01   0.3964E-02
  0.4985E+01   0.3808E-02
  0.4990E+01   0.3633E-02
  0.4995E+01   0.3444E-02
  0.5000E+01   0.3248E-02
  0.5005E+01   0.3049E-02
  0.5010E+01   0.2855E-02
  0.5015E+01   0.2668E-02
  0.5020E+01   0.2491E-02
  0.5025E+01   0.2325E-02
  0.5030E+01   0.2171E-02
  0.5035E+01   0.2028E-02
  0.5040E+01   0.1897E-02
  0.5045E+01   0.1776E-02
  0.5050E+01   0.1666E-02
  0.5055E+01   0.1568E-02
  0.5060E+01   0.1484E-02
  0.5065E+01   0.1416E-02
  0.5070E+01   0.1364E-02
  0.5075E+01   0.1332E-02
  0.5080E+01   0.1319E-02
  0.5085E+01   0.1328E-02
  0.5090E+01   0.1356E-02
  0.5095E+01   0.1404E-02
  0.5100E+01   0.1470E-02
  0.5105E+01   0.1551E-02
  0.5110E+01   0.1645E-02
  0.5115E+01   0.1749E-02
  0.5120E+01   0.1861E-02
  0.5125E+01   0.1978E-02
  0.5130E+01   0.2098E-02
  0.5135E+01   0.2221E-02
  0.5140E+01   0.2346E-02
  0.5145E+01   0.2472E-02
  0.5150E+01   0.2599E-02
  0.5155E+01   0.2726E-02
  0.5160E+01   0.2852E-02
  0.5165E+01   0.2973E-02
  0.5170E+01   0.3088E-02
  0.5175E+01   0.3191E-02
  0.5180E+01   0.3279E-02
  0.5185E+01   0.3349E-02
  0.5190E+01   0.3398E-02
  0.5195E+01   0.3423E-02
  0.5200E+01   0.3425E-02
  0.5205E+01   0.3405E-02
  0.5210E+01   0.3362E-02
  0.5215E+01   0.3301E-02
  0.5220E+01   0.3224E-02
  0.5225E+01   0.3134E-02
  0.5230E+01   0.3034E-02
  0.5235E+01   0.2929E-02
  0.5240E+01   0.2819E-02
  0.5245E+01   0.2708E-02
  0.5250E+01   0.2599E-02
  0.5255E+01   0.2493E-02
  0.5260E+01   0.2394E-02
  0.5265E+01   0.2302E-02
  0.5270E+01   0.2221E-02
  0.5275E+01   0.2150E-02
  0.5280E+01   0.2092E-02
  0.5285E+01   0.2044E-02
  0.5290E+01   0.2009E-02
  0.5295E+01   0.1984E-02
  0.5300E+01   0.1970E-02
  0.5305E+01   0.1966E-02
  0.5310E+01   0.1971E-02
  0.5315E+01   0.1987E-02
  0.5320E+01   0.2012E-02
  0.5325E+01   0.2046E-02
  0.5330E+01   0.2090E-02
  0.5335E+01   0.2142E-02
  0.5340E+01   0.2204E-02
  0.5345E+01   0.2274E-02
  0.5350E+01   0.2349E-02
  0.5355E+01   0.2429E-02
  0.5360E+01   0.2513E-02
  0.5365E+01   0.2598E-02
  0.5370E+01   0.2685E-02
  0.5375E+01   0.2773E-02
  0.5380E+01   0.2864E-02
  0.5385E+01   0.2958E-02
  0.5390E+01   0.3055E-02
  0.5395E+01   0.3155E-02
  0.5400E+01   0.3257E-02
  0.5405E+01   0.3359E-02
  0.5410E+01   0.3458E-02
  0.5415E+01   0.3551E-02
  0.5420E+01   0.3635E-02
  0.5425E+01   0.3706E-02
  0.5430E+01   0.3761E-02
  0.5435E+01   0.3799E-02
  0.5440E+01   0.3820E-02
  0.5445E+01   0.3822E-02
  0.5450E+01   0.3809E-02
  0.5455E+01   0.3781E-02
  0.5460E+01   0.3743E-02
  0.5465E+01   0.3698E-02
  0.5470E+01   0.3651E-02
  0.5475E+01   0.3606E-02
  0.5480E+01   0.3568E-02
  0.5485E+01   0.3539E-02
  0.5490E+01   0.3522E-02
  0.5495E+01   0.3520E-02
  0.5500E+01   0.3533E-02
  0.5505E+01   0.3562E-02
  0.5510E+01   0.3605E-02
  0.5515E+01   0.3662E-02
  0.5520E+01   0.3729E-02
  0.5525E+01   0.3802E-02
  0.5530E+01   0.3877E-02
  0.5535E+01   0.3949E-02
  0.5540E+01   0.4013E-02
  0.5545E+01   0.4066E-02
  0.5550E+01   0.4103E-02
  0.5555E+01   0.4121E-02
  0.5560E+01   0.4121E-02
  0.5565E+01   0.4102E-02
  0.5570E+01   0.4067E-02
  0.5575E+01   0.4016E-02
  0.5580E+01   0.3954E-02
  0.5585E+01   0.3884E-02
  0.5590E+01   0.3808E-02
  0.5595E+01   0.3731E-02
  0.5600E+01   0.3656E-02
  0.5605E+01   0.3585E-02
  0.5610E+01   0.3521E-02
  0.5615E+01   0.3467E-02
  0.5620E+01   0.3425E-02
  0.5625E+01   0.3396E-02
  0.5630E+01   0.3382E-02
  0.5635E+01   0.3383E-02
  0.5640E+01   0.3401E-02
  0.5645E+01   0.3433E-02
  0.5650E+01   0.3479E-02
  0.5655E+01   0.3537E-02
  0.5660E+01   0.3606E-02
  0.5665E+01   0.3681E-02
  0.5670E+01   0.3761E-02
  0.5675E+01   0.3840E-02
  0.5680E+01   0.3914E-02
  0.5685E+01   0.3981E-02
  0.5690E+01   0.4034E-02
  0.5695E+01   0.4073E-02
  0.5700E+01   0.4095E-02
  0.5705E+01   0.4099E-02
  0.5710E+01   0.4085E-02
  0.5715E+01   0.4056E-02
  0.5720E+01   0.4011E-02
  0.5725E+01   0.3956E-02
  0.5730E+01   0.3892E-02
  0.5735E+01   0.3822E-02
  0.5740E+01   0.3750E-02
  0.5745E+01   0.3676E-02
  0.5750E+01   0.3604E-02
  0.5755E+01   0.3533E-02
  0.5760E+01   0.3464E-02
  0.5765E+01   0.3397E-02
  0.5770E+01   0.3330E-02
  0.5775E+01   0.3262E-02
  0.5780E+01   0.3192E-02
  0.5785E+01   0.3118E-02
  0.5790E+01   0.3041E-02
  0.5795E+01   0.2961E-02
  0.5800E+01   0.2879E-02
  0.5805E+01   0.2795E-02
  0.5810E+01   0.2710E-02
  0.5815E+01   0.2624E-02
  0.5820E+01   0.2538E-02
  0.5825E+01   0.2452E-02
  0.5830E+01   0.2367E-02
  0.5835E+01   0.2283E-02
  0.5840E+01   0.2203E-02
  0.5845E+01   0.2128E-02
  0.5850E+01   0.2060E-02
  0.5855E+01   0.2000E-02
  0.5860E+01   0.1951E-02
  0.5865E+01   0.1913E-02
  0.5870E+01   0.1888E-02
  0.5875E+01   0.1877E-02
  0.5880E+01   0.1880E-02
  0.5885E+01   0.1898E-02
  0.5890E+01   0.1930E-02
  0.5895E+01   0.1973E-02
  0.5900E+01   0.2025E-02
  0.5905E+01   0.2083E-02
  0.5910E+01   0.2144E-02
  0.5915E+01   0.2205E-02
  0.5920E+01   0.2264E-02
  0.5925E+01   0.2321E-02
  0.5930E+01   0.2374E-02
  0.5935E+01   0.2427E-02
  0.5940E+01   0.2479E-02
  0.5945E+01   0.2532E-02
  0.5950E+01   0.2586E-02
  0.5955E+01   0.2642E-02
  0.5960E+01   0.2700E-02
  0.5965E+01   0.2761E-02
  0.5970E+01   0.2827E-02
  0.5975E+01   0.2900E-02
  0.5980E+01   0.2982E-02
  0.5985E+01   0.3075E-02
  0.5990E+01   0.3182E-02
  0.5995E+01   0.3306E-02
  0.6000E+01   0.3449E-02
  0.6005E+01   0.3613E-02
  0.6010E+01   0.3799E-02
  0.6015E+01   0.4007E-02
  0.6020E+01   0.4236E-02
  0.6025E+01   0.4483E-02
  0.6030E+01   0.4743E-02
  0.6035E+01   0.5012E-02
  0.6040E+01   0.5284E-02
  0.6045E+01   0.5553E-02
  0.6050E+01   0.5815E-02
  0.6055E+01   0.6062E-02
  0.6060E+01   0.6290E-02
  0.6065E+01   0.6495E-02
  0.6070E+01   0.6674E-02
  0.6075E+01   0.6826E-02
  0.6080E+01   0.6949E-02
  0.6085E+01   0.7045E-02
  0.6090E+01   0.7115E-02
  0.6095E+01   0.7162E-02
  0.6100E+01   0.7188E-02
  0.6105E+01   0.7198E-02
  0.6110E+01   0.7195E-02
  0.6115E+01   0.7182E-02
  0.6120E+01   0.7164E-02
  0.6125E+01   0.7144E-02
  0.6130E+01   0.7126E-02
  0.6135E+01   0.7113E-02
  0.6140E+01   0.7109E-02
  0.6145E+01   0.7116E-02
  0.6150E+01   0.7134E-02
  0.6155E+01   0.7165E-02
  0.6160E+01   0.7208E-02
  0.6165E+01   0.7260E-02
  0.6170E+01   0.7320E-02
  0.6175E+01   0.7382E-02
  0.6180E+01   0.7441E-02
  0.6185E+01   0.7491E-02
  0.6190E+01   0.7526E-02
  0.6195E+01   0.7539E-02
  0.6200E+01   0.7525E-02
  0.6205E+01   0.7478E-02
  0.6210E+01   0.7395E-02
  0.6215E+01   0.7276E-02
  0.6220E+01   0.7123E-02
  0.6225E+01   0.6942E-02
  0.6230E+01   0.6741E-02
  0.6235E+01   0.6526E-02
  0.6240E+01   0.6302E-02
  0.6245E+01   0.6073E-02
  0.6250E+01   0.5841E-02
  0.6255E+01   0.5605E-02
  0.6260E+01   0.5367E-02
  0.6265E+01   0.5129E-02
  0.6270E+01   0.4891E-02
  0.6275E+01   0.4657E-02
  0.6280E+01   0.4429E-02
  0.6285E+01   0.4211E-02
  0.6290E+01   0.4006E-02
  0.6295E+01   0.3817E-02
  0.6300E+01   0.3648E-02
  0.6305E+01   0.3502E-02
  0.6310E+01   0.3381E-02
  0.6315E+01   0.3288E-02
  0.6320E+01   0.3224E-02
  0.6325E+01   0.3188E-02
  0.6330E+01   0.3178E-02
  0.6335E+01   0.3191E-02
  0.6340E+01   0.3223E-02
  0.6345E+01   0.3267E-02
  0.6350E+01   0.3318E-02
  0.6355E+01   0.3372E-02
  0.6360E+01   0.3423E-02
  0.6365E+01   0.3471E-02
  0.6370E+01   0.3513E-02
  0.6375E+01   0.3549E-02
  0.6380E+01   0.3581E-02
  0.6385E+01   0.3608E-02
  0.6390E+01   0.3632E-02
  0.6395E+01   0.3652E-02
  0.6400E+01   0.3668E-02
  0.6405E+01   0.3681E-02
  0.6410E+01   0.3690E-02
  0.6415E+01   0.3697E-02
  0.6420E+01   0.3701E-02
  0.6425E+01   0.3703E-02
  0.6430E+01   0.3704E-02
  0.6435E+01   0.3702E-02
  0.6440E+01   0.3697E-02
  0.6445E+01   0.3690E-02
  0.6450E+01   0.3681E-02
  0.6455E+01   0.3670E-02
  0.6460E+01   0.3657E-02
  0.6465E+01   0.3643E-02
  0.6470E+01   0.3627E-02
  0.6475E+01   0.3611E-02
  0.6480E+01   0.3592E-02
  0.6485E+01   0.3568E-02
  0.6490E+01   0.3537E-02
  0.6495E+01   0.3495E-02
  0.6500E+01   0.3438E-02
  0.6505E+01   0.3363E-02
  0.6510E+01   0.3266E-02
  0.6515E+01   0.3147E-02
  0.6520E+01   0.3006E-02
  0.6525E+01   0.2843E-02
  0.6530E+01   0.2661E-02
  0.6535E+01   0.2466E-02
  0.6540E+01   0.2263E-02
  0.6545E+01   0.2059E-02
  0.6550E+01   0.1861E-02
  0.6555E+01   0.1675E-02
  0.6560E+01   0.1504E-02
  0.6565E+01   0.1352E-02
  0.6570E+01   0.1220E-02
  0.6575E+01   0.1108E-02
  0.6580E+01   0.1016E-02
  0.6585E+01   0.9406E-03
  0.6590E+01   0.8821E-03
  0.6595E+01   0.8383E-03
  0.6600E+01   0.8077E-03
  0.6605E+01   0.7888E-03
  0.6610E+01   0.7800E-03
  0.6615E+01   0.7802E-03
  0.6620E+01   0.7882E-03
  0.6625E+01   0.8029E-03
  0.6630E+01   0.8232E-03
  0.6635E+01   0.8479E-03
  0.6640E+01   0.8758E-03
  0.6645E+01   0.9056E-03
  0.6650E+01   0.9359E-03
  0.6655E+01   0.9654E-03
  0.6660E+01   0.9931E-03
  0.6665E+01   0.1018E-02
  0.6670E+01   0.1040E-02
  0.6675E+01   0.1058E-02
  0.6680E+01   0.1073E-02
  0.6685E+01   0.1085E-02
  0.6690E+01   0.1096E-02
  0.6695E+01   0.1105E-02
  0.6700E+01   0.1115E-02
  0.6705E+01   0.1127E-02
  0.6710E+01   0.1143E-02
  0.6715E+01   0.1162E-02
  0.6720E+01   0.1187E-02
  0.6725E+01   0.1217E-02
  0.6730E+01   0.1251E-02
  0.6735E+01   0.1287E-02
  0.6740E+01   0.1326E-02
  0.6745E+01   0.1363E-02
  0.6750E+01   0.1396E-02
  0.6755E+01   0.1424E-02
  0.6760E+01   0.1445E-02
  0.6765E+01   0.1458E-02
  0.6770E+01   0.1462E-02
  0.6775E+01   0.1459E-02
  0.6780E+01   0.1450E-02
  0.6785E+01   0.1436E-02
  0.6790E+01   0.1418E-02
  0.6795E+01   0.1398E-02
  0.6800E+01   0.1374E-02
  0.6805E+01   0.1348E-02
  0.6810E+01   0.1319E-02
  0.6815E+01   0.1286E-02
  0.6820E+01   0.1249E-02
  0.6825E+01   0.1209E-02
  0.6830E+01   0.1163E-02
  0.6835E+01   0.1114E-02
  0.6840E+01   0.1061E-02
  0.6845E+01   0.1005E-02
  0.6850E+01   0.9469E-03
  0.6855E+01   0.8878E-03
  0.6860E+01   0.8282E-03
  0.6865E+01   0.7683E-03
  0.6870E+01   0.7081E-03
  0.6875E+01   0.6475E-03
  0.6880E+01   0.5866E-03
  0.6885E+01   0.5258E-03
  0.6890E+01   0.4657E-03
  0.6895E+01   0.4075E-03
  0.6900E+01   0.3524E-03
  0.6905E+01   0.3017E-03
  0.6910E+01   0.2566E-03
  0.6915E+01   0.2178E-03
  0.6920E+01   0.1858E-03
  0.6925E+01   0.1608E-03
  0.6930E+01   0.1424E-03
  0.6935E+01   0.1305E-03
  0.6940E+01   0.1244E-03
  0.6945E+01   0.1239E-03
  0.6950E+01   0.1286E-03
  0.6955E+01   0.1384E-03
  0.6960E+01   0.1537E-03
  0.6965E+01   0.1753E-03
  0.6970E+01   0.2044E-03
  0.6975E+01   0.2427E-03
  0.6980E+01   0.2916E-03
  0.6985E+01   0.3525E-03
  0.6990E+01   0.4258E-03
  0.6995E+01   0.5110E-03
  0.7000E+01   0.6065E-03
  0.7005E+01   0.7099E-03
  0.7010E+01   0.8182E-03
  0.7015E+01   0.9279E-03
  0.7020E+01   0.1036E-02
  0.7025E+01   0.1140E-02
  0.7030E+01   0.1238E-02
  0.7035E+01   0.1330E-02
  0.7040E+01   0.1416E-02
  0.7045E+01   0.1497E-02
  0.7050E+01   0.1576E-02
  0.7055E+01   0.1653E-02
  0.7060E+01   0.1730E-02
  0.7065E+01   0.1811E-02
  0.7070E+01   0.1896E-02
  0.7075E+01   0.1989E-02
  0.7080E+01   0.2094E-02
  0.7085E+01   0.2212E-02
  0.7090E+01   0.2348E-02
  0.7095E+01   0.2503E-02
  0.7100E+01   0.2680E-02
  0.7105E+01   0.2878E-02
  0.7110E+01   0.3100E-02
  0.7115E+01   0.3345E-02
  0.7120E+01   0.3614E-02
  0.7125E+01   0.3905E-02
  0.7130E+01   0.4216E-02
  0.7135E+01   0.4547E-02
  0.7140E+01   0.4895E-02
  0.7145E+01   0.5259E-02
  0.7150E+01   0.5636E-02
  0.7155E+01   0.6022E-02
  0.7160E+01   0.6414E-02
  0.7165E+01   0.6806E-02
  0.7170E+01   0.7191E-02
  0.7175E+01   0.7565E-02
  0.7180E+01   0.7921E-02
  0.7185E+01   0.8254E-02
  0.7190E+01   0.8558E-02
  0.7195E+01   0.8830E-02
  0.7200E+01   0.9066E-02
  0.7205E+01   0.9265E-02
  0.7210E+01   0.9425E-02
  0.7215E+01   0.9547E-02
  0.7220E+01   0.9632E-02
  0.7225E+01   0.9684E-02
  0.7230E+01   0.9706E-02
  0.7235E+01   0.9701E-02
  0.7240E+01   0.9673E-02
  0.7245E+01   0.9623E-02
  0.7250E+01   0.9553E-02
  0.7255E+01   0.9464E-02
  0.7260E+01   0.9357E-02
  0.7265E+01   0.9233E-02
  0.7270E+01   0.9096E-02
  0.7275E+01   0.8947E-02
  0.7280E+01   0.8791E-02
  0.7285E+01   0.8630E-02
  0.7290E+01   0.8469E-02
  0.7295E+01   0.8309E-02
  0.7300E+01   0.8153E-02
  0.7305E+01   0.8001E-02
  0.7310E+01   0.7854E-02
  0.7315E+01   0.7711E-02
  0.7320E+01   0.7574E-02
  0.7325E+01   0.7442E-02
  0.7330E+01   0.7315E-02
  0.7335E+01   0.7194E-02
  0.7340E+01   0.7078E-02
  0.7345E+01   0.6966E-02
  0.7350E+01   0.6856E-02
  0.7355E+01   0.6743E-02
  0.7360E+01   0.6624E-02
  0.7365E+01   0.6494E-02
  0.7370E+01   0.6350E-02
  0.7375E+01   0.6192E-02
  0.7380E+01   0.6020E-02
  0.7385E+01   0.5839E-02
  0.7390E+01   0.5652E-02
  0.7395E+01   0.5464E-02
  0.7400E+01   0.5282E-02
  0.7405E+01   0.5107E-02
  0.7410E+01   0.4945E-02
  0.7415E+01   0.4799E-02
  0.7420E+01   0.4671E-02
  0.7425E+01   0.4564E-02
  0.7430E+01   0.4481E-02
  0.7435E+01   0.4423E-02
  0.7440E+01   0.4392E-02
  0.7445E+01   0.4390E-02
  0.7450E+01   0.4414E-02
  0.7455E+01   0.4463E-02
  0.7460E+01   0.4533E-02
  0.7465E+01   0.4621E-02
  0.7470E+01   0.4724E-02
  0.7475E+01   0.4839E-02
  0.7480E+01   0.4962E-02
  0.7485E+01   0.5093E-02
  0.7490E+01   0.5231E-02
  0.7495E+01   0.5377E-02
  0.7500E+01   0.5533E-02
  0.7505E+01   0.5701E-02
  0.7510E+01   0.5886E-02
  0.7515E+01   0.6089E-02
  0.7520E+01   0.6314E-02
  0.7525E+01   0.6560E-02
  0.7530E+01   0.6829E-02
  0.7535E+01   0.7120E-02
  0.7540E+01   0.7429E-02
  0.7545E+01   0.7755E-02
  0.7550E+01   0.8093E-02
  0.7555E+01   0.8437E-02
  0.7560E+01   0.8781E-02
  0.7565E+01   0.9119E-02
  0.7570E+01   0.9444E-02
  0.7575E+01   0.9748E-02
  0.7580E+01   0.1003E-01
  0.7585E+01   0.1027E-01
  0.7590E+01   0.1048E-01
  0.7595E+01   0.1064E-01
  0.7600E+01   0.1078E-01
  0.7605E+01   0.1087E-01
  0.7610E+01   0.1093E-01
  0.7615E+01   0.1097E-01
  0.7620E+01   0.1097E-01
  0.7625E+01   0.1095E-01
  0.7630E+01   0.1089E-01
  0.7635E+01   0.1081E-01
  0.7640E+01   0.1071E-01
  0.7645E+01   0.1058E-01
  0.7650E+01   0.1045E-01
  0.7655E+01   0.1031E-01
  0.7660E+01   0.1018E-01
  0.7665E+01   0.1007E-01
  0.7670E+01   0.9977E-02
  0.7675E+01   0.9913E-02
  0.7680E+01   0.9877E-02
  0.7685E+01   0.9864E-02
  0.7690E+01   0.9873E-02
  0.7695E+01   0.9895E-02
  0.7700E+01   0.9927E-02
  0.7705E+01   0.9961E-02
  0.7710E+01   0.9995E-02
  0.7715E+01   0.1003E-01
  0.7720E+01   0.1005E-01
  0.7725E+01   0.1007E-01
  0.7730E+01   0.1009E-01
  0.7735E+01   0.1010E-01
  0.7740E+01   0.1010E-01
  0.7745E+01   0.1010E-01
  0.7750E+01   0.1009E-01
  0.7755E+01   0.1006E-01
  0.7760E+01   0.1003E-01
  0.7765E+01   0.9984E-02
  0.7770E+01   0.9932E-02
  0.7775E+01   0.9876E-02
  0.7780E+01   0.9821E-02
  0.7785E+01   0.9769E-02
  0.7790E+01   0.9723E-02
  0.7795E+01   0.9685E-02
  0.7800E+01   0.9653E-02
  0.7805E+01   0.9625E-02
  0.7810E+01   0.9597E-02
  0.7815E+01   0.9564E-02
  0.7820E+01   0.9520E-02
  0.7825E+01   0.9461E-02
  0.7830E+01   0.9383E-02
  0.7835E+01   0.9285E-02
  0.7840E+01   0.9164E-02
  0.7845E+01   0.9021E-02
  0.7850E+01   0.8855E-02
  0.7855E+01   0.8666E-02
  0.7860E+01   0.8457E-02
  0.7865E+01   0.8227E-02
  0.7870E+01   0.7980E-02
  0.7875E+01   0.7719E-02
  0.7880E+01   0.7448E-02
  0.7885E+01   0.7171E-02
  0.7890E+01   0.6895E-02
  0.7895E+01   0.6626E-02
  0.7900E+01   0.6370E-02
  0.7905E+01   0.6133E-02
  0.7910E+01   0.5919E-02
  0.7915E+01   0.5731E-02
  0.7920E+01   0.5568E-02
  0.7925E+01   0.5427E-02
  0.7930E+01   0.5306E-02
  0.7935E+01   0.5199E-02
  0.7940E+01   0.5101E-02
  0.7945E+01   0.5007E-02
  0.7950E+01   0.4911E-02
  0.7955E+01   0.4811E-02
  0.7960E+01   0.4702E-02
  0.7965E+01   0.4582E-02
  0.7970E+01   0.4450E-02
  0.7975E+01   0.4303E-02
  0.7980E+01   0.4142E-02
  0.7985E+01   0.3964E-02
  0.7990E+01   0.3770E-02
  0.7995E+01   0.3561E-02
  0.8000E+01   0.3337E-02
  0.8005E+01   0.3100E-02
  0.8010E+01   0.2854E-02
  0.8015E+01   0.2602E-02
  0.8020E+01   0.2349E-02
  0.8025E+01   0.2099E-02
  0.8030E+01   0.1856E-02
  0.8035E+01   0.1623E-02
  0.8040E+01   0.1403E-02
  0.8045E+01   0.1197E-02
  0.8050E+01   0.1008E-02
  0.8055E+01   0.8355E-03
  0.8060E+01   0.6811E-03
  0.8065E+01   0.5462E-03
  0.8070E+01   0.4322E-03
  0.8075E+01   0.3403E-03
  0.8080E+01   0.2714E-03
  0.8085E+01   0.2254E-03
  0.8090E+01   0.2013E-03
  0.8095E+01   0.1977E-03
  0.8100E+01   0.2122E-03
  0.8105E+01   0.2425E-03
  0.8110E+01   0.2859E-03
  0.8115E+01   0.3400E-03
  0.8120E+01   0.4030E-03
  0.8125E+01   0.4738E-03
  0.8130E+01   0.5520E-03
  0.8135E+01   0.6379E-03
  0.8140E+01   0.7321E-03
  0.8145E+01   0.8351E-03
  0.8150E+01   0.9475E-03
  0.8155E+01   0.1070E-02
  0.8160E+01   0.1202E-02
  0.8165E+01   0.1344E-02
  0.8170E+01   0.1496E-02
  0.8175E+01   0.1658E-02
  0.8180E+01   0.1829E-02
  0.8185E+01   0.2010E-02
  0.8190E+01   0.2200E-02
  0.8195E+01   0.2399E-02
  0.8200E+01   0.2606E-02
  0.8205E+01   0.2822E-02
  0.8210E+01   0.3049E-02
  0.8215E+01   0.3286E-02
  0.8220E+01   0.3535E-02
  0.8225E+01   0.3796E-02
  0.8230E+01   0.4069E-02
  0.8235E+01   0.4353E-02
  0.8240E+01   0.4647E-02
  0.8245E+01   0.4945E-02
  0.8250E+01   0.5245E-02
  0.8255E+01   0.5543E-02
  0.8260E+01   0.5833E-02
  0.8265E+01   0.6112E-02
  0.8270E+01   0.6375E-02
  0.8275E+01   0.6619E-02
  0.8280E+01   0.6840E-02
  0.8285E+01   0.7035E-02
  0.8290E+01   0.7202E-02
  0.8295E+01   0.7339E-02
  0.8300E+01   0.7445E-02
  0.8305E+01   0.7522E-02
  0.8310E+01   0.7570E-02
  0.8315E+01   0.7591E-02
  0.8320E+01   0.7589E-02
  0.8325E+01   0.7566E-02
  0.8330E+01   0.7526E-02
  0.8335E+01   0.7471E-02
  0.8340E+01   0.7403E-02
  0.8345E+01   0.7327E-02
  0.8350E+01   0.7243E-02
  0.8355E+01   0.7155E-02
  0.8360E+01   0.7065E-02
  0.8365E+01   0.6973E-02
  0.8370E+01   0.6882E-02
  0.8375E+01   0.6793E-02
  0.8380E+01   0.6704E-02
  0.8385E+01   0.6618E-02
  0.8390E+01   0.6532E-02
  0.8395E+01   0.6446E-02
  0.8400E+01   0.6358E-02
  0.8405E+01   0.6265E-02
  0.8410E+01   0.6166E-02
  0.8415E+01   0.6058E-02
  0.8420E+01   0.5939E-02
  0.8425E+01   0.5811E-02
  0.8430E+01   0.5673E-02
  0.8435E+01   0.5526E-02
  0.8440E+01   0.5370E-02
  0.8445E+01   0.5207E-02
  0.8450E+01   0.5034E-02
  0.8455E+01   0.4853E-02
  0.8460E+01   0.4660E-02
  0.8465E+01   0.4457E-02
  0.8470E+01   0.4245E-02
  0.8475E+01   0.4026E-02
  0.8480E+01   0.3805E-02
  0.8485E+01   0.3583E-02
  0.8490E+01   0.3365E-02
  0.8495E+01   0.3152E-02
  0.8500E+01   0.2943E-02
  0.8505E+01   0.2741E-02
  0.8510E+01   0.2543E-02
  0.8515E+01   0.2352E-02
  0.8520E+01   0.2166E-02
  0.8525E+01   0.1986E-02
  0.8530E+01   0.1814E-02
  0.8535E+01   0.1648E-02
  0.8540E+01   0.1491E-02
  0.8545E+01   0.1343E-02
  0.8550E+01   0.1203E-02
  0.8555E+01   0.1073E-02
  0.8560E+01   0.9539E-03
  0.8565E+01   0.8457E-03
  0.8570E+01   0.7493E-03
  0.8575E+01   0.6647E-03
  0.8580E+01   0.5919E-03
  0.8585E+01   0.5301E-03
  0.8590E+01   0.4784E-03
  0.8595E+01   0.4357E-03
  0.8600E+01   0.4007E-03
  0.8605E+01   0.3719E-03
  0.8610E+01   0.3483E-03
  0.8615E+01   0.3288E-03
  0.8620E+01   0.3124E-03
  0.8625E+01   0.2986E-03
  0.8630E+01   0.2869E-03
  0.8635E+01   0.2773E-03
  0.8640E+01   0.2698E-03
  0.8645E+01   0.2645E-03
  0.8650E+01   0.2616E-03
  0.8655E+01   0.2614E-03
  0.8660E+01   0.2639E-03
  0.8665E+01   0.2691E-03
  0.8670E+01   0.2769E-03
  0.8675E+01   0.2868E-03
  0.8680E+01   0.2983E-03
  0.8685E+01   0.3110E-03
  0.8690E+01   0.3243E-03
  0.8695E+01   0.3377E-03
  0.8700E+01   0.3508E-03
  0.8705E+01   0.3632E-03
  0.8710E+01   0.3748E-03
  0.8715E+01   0.3854E-03
  0.8720E+01   0.3953E-03
  0.8725E+01   0.4049E-03
  0.8730E+01   0.4148E-03
  0.8735E+01   0.4258E-03
  0.8740E+01   0.4386E-03
  0.8745E+01   0.4541E-03
  0.8750E+01   0.4731E-03
  0.8755E+01   0.4962E-03
  0.8760E+01   0.5239E-03
  0.8765E+01   0.5562E-03
  0.8770E+01   0.5926E-03
  0.8775E+01   0.6319E-03
  0.8780E+01   0.6725E-03
  0.8785E+01   0.7124E-03
  0.8790E+01   0.7492E-03
  0.8795E+01   0.7806E-03
  0.8800E+01   0.8046E-03
  0.8805E+01   0.8203E-03
  0.8810E+01   0.8273E-03
  0.8815E+01   0.8264E-03
  0.8820E+01   0.8187E-03
  0.8825E+01   0.8052E-03
  0.8830E+01   0.7868E-03
  0.8835E+01   0.7643E-03
  0.8840E+01   0.7379E-03
  0.8845E+01   0.7084E-03
  0.8850E+01   0.6766E-03
  0.8855E+01   0.6437E-03
  0.8860E+01   0.6113E-03
  0.8865E+01   0.5811E-03
  0.8870E+01   0.5548E-03
  0.8875E+01   0.5340E-03
  0.8880E+01   0.5201E-03
  0.8885E+01   0.5141E-03
  0.8890E+01   0.5168E-03
  0.8895E+01   0.5285E-03
  0.8900E+01   0.5497E-03
  0.8905E+01   0.5804E-03
  0.8910E+01   0.6207E-03
  0.8915E+01   0.6701E-03
  0.8920E+01   0.7282E-03
  0.8925E+01   0.7939E-03
  0.8930E+01   0.8663E-03
  0.8935E+01   0.9443E-03
  0.8940E+01   0.1027E-02
  0.8945E+01   0.1113E-02
  0.8950E+01   0.1200E-02
  0.8955E+01   0.1289E-02
  0.8960E+01   0.1379E-02
  0.8965E+01   0.1469E-02
  0.8970E+01   0.1560E-02
  0.8975E+01   0.1654E-02
  0.8980E+01   0.1752E-02
  0.8985E+01   0.1856E-02
  0.8990E+01   0.1966E-02
  0.8995E+01   0.2083E-02
  0.9000E+01   0.2209E-02
  0.9005E+01   0.2342E-02
  0.9010E+01   0.2484E-02
  0.9015E+01   0.2633E-02
  0.9020E+01   0.2787E-02
  0.9025E+01   0.2942E-02
  0.9030E+01   0.3097E-02
  0.9035E+01   0.3246E-02
  0.9040E+01   0.3386E-02
  0.9045E+01   0.3514E-02
  0.9050E+01   0.3625E-02
  0.9055E+01   0.3715E-02
  0.9060E+01   0.3782E-02
  0.9065E+01   0.3824E-02
  0.9070E+01   0.3840E-02
  0.9075E+01   0.3832E-02
  0.9080E+01   0.3802E-02
  0.9085E+01   0.3754E-02
  0.9090E+01   0.3693E-02
  0.9095E+01   0.3623E-02
  0.9100E+01   0.3548E-02
  0.9105E+01   0.3473E-02
  0.9110E+01   0.3398E-02
  0.9115E+01   0.3325E-02
  0.9120E+01   0.3255E-02
  0.9125E+01   0.3186E-02
  0.9130E+01   0.3120E-02
  0.9135E+01   0.3056E-02
  0.9140E+01   0.2996E-02
  0.9145E+01   0.2939E-02
  0.9150E+01   0.2887E-02
  0.9155E+01   0.2839E-02
  0.9160E+01   0.2795E-02
  0.9165E+01   0.2753E-02
  0.9170E+01   0.2712E-02
  0.9175E+01   0.2670E-02
  0.9180E+01   0.2626E-02
  0.9185E+01   0.2579E-02
  0.9190E+01   0.2531E-02
  0.9195E+01   0.2481E-02
  0.9200E+01   0.2432E-02
  0.9205E+01   0.2384E-02
  0.9210E+01   0.2338E-02
  0.9215E+01   0.2296E-02
  0.9220E+01   0.2256E-02
  0.9225E+01   0.2218E-02
  0.9230E+01   0.2183E-02
  0.9235E+01   0.2148E-02
  0.9240E+01   0.2115E-02
  0.9245E+01   0.2083E-02
  0.9250E+01   0.2051E-02
  0.9255E+01   0.2022E-02
  0.9260E+01   0.1995E-02
  0.9265E+01   0.1972E-02
  0.9270E+01   0.1953E-02
  0.9275E+01   0.1940E-02
  0.9280E+01   0.1933E-02
  0.9285E+01   0.1932E-02
  0.9290E+01   0.1937E-02
  0.9295E+01   0.1948E-02
  0.9300E+01   0.1963E-02
  0.9305E+01   0.1982E-02
  0.9310E+01   0.2005E-02
  0.9315E+01   0.2029E-02
  0.9320E+01   0.2056E-02
  0.9325E+01   0.2083E-02
  0.9330E+01   0.2110E-02
  0.9335E+01   0.2135E-02
  0.9340E+01   0.2158E-02
  0.9345E+01   0.2177E-02
  0.9350E+01   0.2194E-02
  0.9355E+01   0.2209E-02
  0.9360E+01   0.2220E-02
  0.9365E+01   0.2230E-02
  0.9370E+01   0.2235E-02
  0.9375E+01   0.2237E-02
  0.9380E+01   0.2235E-02
  0.9385E+01   0.2226E-02
  0.9390E+01   0.2212E-02
  0.9395E+01   0.2192E-02
  0.9400E+01   0.2166E-02
  0.9405E+01   0.2136E-02
  0.9410E+01   0.2101E-02
  0.9415E+01   0.2063E-02
  0.9420E+01   0.2025E-02
  0.9425E+01   0.1989E-02
  0.9430E+01   0.1958E-02
  0.9435E+01   0.1936E-02
  0.9440E+01   0.1927E-02
  0.9445E+01   0.1935E-02
  0.9450E+01   0.1967E-02
  0.9455E+01   0.2026E-02
  0.9460E+01   0.2119E-02
  0.9465E+01   0.2250E-02
  0.9470E+01   0.2422E-02
  0.9475E+01   0.2638E-02
  0.9480E+01   0.2897E-02
  0.9485E+01   0.3200E-02
  0.9490E+01   0.3544E-02
  0.9495E+01   0.3928E-02
  0.9500E+01   0.4348E-02
  0.9505E+01   0.4799E-02
  0.9510E+01   0.5278E-02
  0.9515E+01   0.5780E-02
  0.9520E+01   0.6301E-02
  0.9525E+01   0.6837E-02
  0.9530E+01   0.7384E-02
  0.9535E+01   0.7938E-02
  0.9540E+01   0.8493E-02
  0.9545E+01   0.9040E-02
  0.9550E+01   0.9568E-02
  0.9555E+01   0.1007E-01
  0.9560E+01   0.1053E-01
  0.9565E+01   0.1096E-01
  0.9570E+01   0.1133E-01
  0.9575E+01   0.1166E-01
  0.9580E+01   0.1194E-01
  0.9585E+01   0.1218E-01
  0.9590E+01   0.1238E-01
  0.9595E+01   0.1254E-01
  0.9600E+01   0.1267E-01
  0.9605E+01   0.1278E-01
  0.9610E+01   0.1288E-01
  0.9615E+01   0.1297E-01
  0.9620E+01   0.1306E-01
  0.9625E+01   0.1315E-01
  0.9630E+01   0.1325E-01
  0.9635E+01   0.1336E-01
  0.9640E+01   0.1348E-01
  0.9645E+01   0.1360E-01
  0.9650E+01   0.1374E-01
  0.9655E+01   0.1388E-01
  0.9660E+01   0.1403E-01
  0.9665E+01   0.1419E-01
  0.9670E+01   0.1435E-01
  0.9675E+01   0.1452E-01
  0.9680E+01   0.1468E-01
  0.9685E+01   0.1485E-01
  0.9690E+01   0.1501E-01
  0.9695E+01   0.1516E-01
  0.9700E+01   0.1531E-01
  0.9705E+01   0.1545E-01
  0.9710E+01   0.1558E-01
  0.9715E+01   0.1569E-01
  0.9720E+01   0.1578E-01
  0.9725E+01   0.1586E-01
  0.9730E+01   0.1592E-01
  0.9735E+01   0.1596E-01
  0.9740E+01   0.1599E-01
  0.9745E+01   0.1601E-01
  0.9750E+01   0.1603E-01
  0.9755E+01   0.1605E-01
  0.9760E+01   0.1607E-01
  0.9765E+01   0.1610E-01
  0.9770E+01   0.1614E-01
  0.9775E+01   0.1619E-01
  0.9780E+01   0.1625E-01
  0.9785E+01   0.1633E-01
  0.9790E+01   0.1643E-01
  0.9795E+01   0.1654E-01
  0.9800E+01   0.1666E-01
  0.9805E+01   0.1679E-01
  0.9810E+01   0.1693E-01
  0.9815E+01   0.1708E-01
  0.9820E+01   0.1721E-01
  0.9825E+01   0.1734E-01
  0.9830E+01   0.1744E-01
  0.9835E+01   0.1752E-01
  0.9840E+01   0.1757E-01
  0.9845E+01   0.1757E-01
  0.9850E+01   0.1754E-01
  0.9855E+01   0.1748E-01
  0.9860E+01   0.1739E-01
  0.9865E+01   0.1727E-01
  0.9870E+01   0.1713E-01
  0.9875E+01   0.1698E-01
  0.9880E+01   0.1682E-01
  0.9885E+01   0.1664E-01
  0.9890E+01   0.1645E-01
  0.9895E+01   0.1625E-01
  0.9900E+01   0.1605E-01
  0.9905E+01   0.1585E-01
  0.9910E+01   0.1565E-01
  0.9915E+01   0.1545E-01
  0.9920E+01   0.1526E-01
  0.9925E+01   0.1507E-01
  0.9930E+01   0.1488E-01
  0.9935E+01   0.1468E-01
  0.9940E+01   0.1449E-01
  0.9945E+01   0.1428E-01
  0.9950E+01   0.1407E-01
  0.9955E+01   0.1385E-01
  0.9960E+01   0.1361E-01
  0.9965E+01   0.1337E-01
  0.9970E+01   0.1312E-01
  0.9975E+01   0.1286E-01
  0.9980E+01   0.1260E-01
  0.9985E+01   0.1233E-01
  0.9990E+01   0.1206E-01
  0.9995E+01   0.1180E-01
  0.1000E+02   0.1153E-01
  0.1001E+02   0.1127E-01
  0.1001E+02   0.1103E-01
  0.1002E+02   0.1079E-01
  0.1002E+02   0.1058E-01
  0.1003E+02   0.1037E-01
  0.1003E+02   0.1019E-01
  0.1004E+02   0.1002E-01
  0.1004E+02   0.9877E-02
  0.1004E+02   0.9748E-02
  0.1005E+02   0.9639E-02
  0.1005E+02   0.9547E-02
  0.1006E+02   0.9470E-02
  0.1006E+02   0.9406E-02
  0.1007E+02   0.9350E-02
  0.1008E+02   0.9301E-02
  0.1008E+02   0.9256E-02
  0.1009E+02   0.9215E-02
  0.1009E+02   0.9175E-02
  0.1010E+02   0.9137E-02
  0.1010E+02   0.9098E-02
  0.1011E+02   0.9057E-02
  0.1011E+02   0.9014E-02
  0.1012E+02   0.8968E-02
  0.1012E+02   0.8920E-02
  0.1012E+02   0.8874E-02
  0.1013E+02   0.8834E-02
  0.1013E+02   0.8804E-02
  0.1014E+02   0.8787E-02
  0.1014E+02   0.8786E-02
  0.1015E+02   0.8804E-02
  0.1015E+02   0.8838E-02
  0.1016E+02   0.8888E-02
  0.1017E+02   0.8949E-02
  0.1017E+02   0.9018E-02
  0.1018E+02   0.9091E-02
  0.1018E+02   0.9163E-02
  0.1019E+02   0.9230E-02
  0.1019E+02   0.9290E-02
  0.1020E+02   0.9343E-02
  0.1020E+02   0.9389E-02
  0.1021E+02   0.9431E-02
  0.1021E+02   0.9473E-02
  0.1021E+02   0.9519E-02
  0.1022E+02   0.9572E-02
  0.1022E+02   0.9637E-02
  0.1023E+02   0.9715E-02
  0.1023E+02   0.9810E-02
  0.1024E+02   0.9922E-02
  0.1025E+02   0.1005E-01
  0.1025E+02   0.1020E-01
  0.1026E+02   0.1037E-01
  0.1026E+02   0.1055E-01
  0.1027E+02   0.1074E-01
  0.1027E+02   0.1094E-01
  0.1028E+02   0.1115E-01
  0.1028E+02   0.1135E-01
  0.1029E+02   0.1155E-01
  0.1029E+02   0.1173E-01
  0.1029E+02   0.1190E-01
  0.1030E+02   0.1205E-01
  0.1030E+02   0.1217E-01
  0.1031E+02   0.1228E-01
  0.1031E+02   0.1236E-01
  0.1032E+02   0.1243E-01
  0.1033E+02   0.1250E-01
  0.1033E+02   0.1255E-01
  0.1034E+02   0.1261E-01
  0.1034E+02   0.1267E-01
  0.1035E+02   0.1274E-01
  0.1035E+02   0.1281E-01
  0.1036E+02   0.1287E-01
  0.1036E+02   0.1294E-01
  0.1037E+02   0.1300E-01
  0.1037E+02   0.1305E-01
  0.1038E+02   0.1308E-01
  0.1038E+02   0.1308E-01
  0.1038E+02   0.1305E-01
  0.1039E+02   0.1299E-01
  0.1039E+02   0.1290E-01
  0.1040E+02   0.1277E-01
  0.1040E+02   0.1260E-01
  0.1041E+02   0.1240E-01
  0.1042E+02   0.1217E-01
  0.1042E+02   0.1192E-01
  0.1043E+02   0.1164E-01
  0.1043E+02   0.1134E-01
  0.1044E+02   0.1104E-01
  0.1044E+02   0.1074E-01
  0.1045E+02   0.1045E-01
  0.1045E+02   0.1017E-01
  0.1046E+02   0.9914E-02
  0.1046E+02   0.9672E-02
  0.1046E+02   0.9444E-02
  0.1047E+02   0.9228E-02
  0.1047E+02   0.9018E-02
  0.1048E+02   0.8810E-02
  0.1048E+02   0.8601E-02
  0.1049E+02   0.8389E-02
  0.1050E+02   0.8174E-02
  0.1050E+02   0.7956E-02
  0.1051E+02   0.7735E-02
  0.1051E+02   0.7514E-02
  0.1052E+02   0.7291E-02
  0.1052E+02   0.7068E-02
  0.1053E+02   0.6844E-02
  0.1053E+02   0.6618E-02
  0.1054E+02   0.6392E-02
  0.1054E+02   0.6164E-02
  0.1054E+02   0.5935E-02
  0.1055E+02   0.5704E-02
  0.1055E+02   0.5472E-02
  0.1056E+02   0.5239E-02
  0.1056E+02   0.5004E-02
  0.1057E+02   0.4767E-02
  0.1058E+02   0.4529E-02
  0.1058E+02   0.4291E-02
  0.1059E+02   0.4054E-02
  0.1059E+02   0.3820E-02
  0.1060E+02   0.3593E-02
  0.1060E+02   0.3375E-02
  0.1061E+02   0.3167E-02
  0.1061E+02   0.2972E-02
  0.1062E+02   0.2791E-02
  0.1062E+02   0.2625E-02
  0.1062E+02   0.2475E-02
  0.1063E+02   0.2342E-02
  0.1063E+02   0.2226E-02
  0.1064E+02   0.2126E-02
  0.1064E+02   0.2042E-02
  0.1065E+02   0.1974E-02
  0.1065E+02   0.1919E-02
  0.1066E+02   0.1875E-02
  0.1067E+02   0.1840E-02
  0.1067E+02   0.1811E-02
  0.1068E+02   0.1784E-02
  0.1068E+02   0.1756E-02
  0.1069E+02   0.1723E-02
  0.1069E+02   0.1683E-02
  0.1070E+02   0.1634E-02
  0.1070E+02   0.1575E-02
  0.1071E+02   0.1509E-02
  0.1071E+02   0.1436E-02
  0.1071E+02   0.1360E-02
  0.1072E+02   0.1281E-02
  0.1072E+02   0.1201E-02
  0.1073E+02   0.1122E-02
  0.1073E+02   0.1044E-02
  0.1074E+02   0.9674E-03
  0.1075E+02   0.8917E-03
  0.1075E+02   0.8174E-03
  0.1076E+02   0.7453E-03
  0.1076E+02   0.6761E-03
  0.1077E+02   0.6110E-03
  0.1077E+02   0.5510E-03
  0.1078E+02   0.4972E-03
  0.1078E+02   0.4503E-03
  0.1079E+02   0.4107E-03
  0.1079E+02   0.3785E-03
  0.1079E+02   0.3533E-03
  0.1080E+02   0.3347E-03
  0.1080E+02   0.3218E-03
  0.1081E+02   0.3138E-03
  0.1081E+02   0.3095E-03
  0.1082E+02   0.3077E-03
  0.1083E+02   0.3077E-03
  0.1083E+02   0.3088E-03
  0.1084E+02   0.3106E-03
  0.1084E+02   0.3130E-03
  0.1085E+02   0.3158E-03
  0.1085E+02   0.3189E-03
  0.1086E+02   0.3222E-03
  0.1086E+02   0.3256E-03
  0.1087E+02   0.3292E-03
  0.1087E+02   0.3332E-03
  0.1088E+02   0.3374E-03
  0.1088E+02   0.3417E-03
  0.1088E+02   0.3457E-03
  0.1089E+02   0.3491E-03
  0.1089E+02   0.3518E-03
  0.1090E+02   0.3537E-03
  0.1090E+02   0.3555E-03
  0.1091E+02   0.3582E-03
  0.1092E+02   0.3629E-03
  0.1092E+02   0.3708E-03
  0.1093E+02   0.3833E-03
  0.1093E+02   0.4012E-03
  0.1094E+02   0.4254E-03
  0.1094E+02   0.4563E-03
  0.1095E+02   0.4944E-03
  0.1095E+02   0.5396E-03
  0.1096E+02   0.5922E-03
  0.1096E+02   0.6521E-03
  0.1096E+02   0.7190E-03
  0.1097E+02   0.7927E-03
  0.1097E+02   0.8725E-03
  0.1098E+02   0.9577E-03
  0.1098E+02   0.1047E-02
  0.1099E+02   0.1141E-02
  0.1100E+02   0.1236E-02
  0.1100E+02   0.1333E-02
  0.1101E+02   0.1428E-02
  0.1101E+02   0.1520E-02
  0.1102E+02   0.1609E-02
  0.1102E+02   0.1692E-02
  0.1103E+02   0.1771E-02
  0.1103E+02   0.1847E-02
  0.1104E+02   0.1920E-02
  0.1104E+02   0.1992E-02
  0.1104E+02   0.2063E-02
  0.1105E+02   0.2135E-02
  0.1105E+02   0.2207E-02
  0.1106E+02   0.2279E-02
  0.1106E+02   0.2350E-02
  0.1107E+02   0.2420E-02
  0.1108E+02   0.2489E-02
  0.1108E+02   0.2558E-02
  0.1109E+02   0.2628E-02
  0.1109E+02   0.2700E-02
  0.1110E+02   0.2778E-02
  0.1110E+02   0.2862E-02
  0.1111E+02   0.2955E-02
  0.1111E+02   0.3056E-02
  0.1112E+02   0.3165E-02
  0.1112E+02   0.3278E-02
  0.1112E+02   0.3393E-02
  0.1113E+02   0.3505E-02
  0.1113E+02   0.3611E-02
  0.1114E+02   0.3709E-02
  0.1114E+02   0.3799E-02
  0.1115E+02   0.3879E-02
  0.1115E+02   0.3951E-02
  0.1116E+02   0.4015E-02
  0.1117E+02   0.4072E-02
  0.1117E+02   0.4120E-02
  0.1118E+02   0.4162E-02
  0.1118E+02   0.4197E-02
  0.1119E+02   0.4229E-02
  0.1119E+02   0.4261E-02
  0.1120E+02   0.4298E-02
  0.1120E+02   0.4345E-02
  0.1121E+02   0.4407E-02
  0.1121E+02   0.4489E-02
  0.1121E+02   0.4593E-02
  0.1122E+02   0.4721E-02
  0.1122E+02   0.4875E-02
  0.1123E+02   0.5054E-02
  0.1123E+02   0.5257E-02
  0.1124E+02   0.5481E-02
  0.1125E+02   0.5724E-02
  0.1125E+02   0.5980E-02
  0.1126E+02   0.6245E-02
  0.1126E+02   0.6513E-02
  0.1127E+02   0.6781E-02
  0.1127E+02   0.7044E-02
  0.1128E+02   0.7304E-02
  0.1128E+02   0.7559E-02
  0.1129E+02   0.7811E-02
  0.1129E+02   0.8064E-02
  0.1129E+02   0.8317E-02
  0.1130E+02   0.8572E-02
  0.1130E+02   0.8829E-02
  0.1131E+02   0.9086E-02
  0.1131E+02   0.9340E-02
  0.1132E+02   0.9588E-02
  0.1133E+02   0.9824E-02
  0.1133E+02   0.1004E-01
  0.1134E+02   0.1024E-01
  0.1134E+02   0.1041E-01
  0.1135E+02   0.1054E-01
  0.1135E+02   0.1063E-01
  0.1136E+02   0.1069E-01
  0.1136E+02   0.1070E-01
  0.1137E+02   0.1068E-01
  0.1137E+02   0.1062E-01
  0.1138E+02   0.1052E-01
  0.1138E+02   0.1040E-01
  0.1138E+02   0.1025E-01
  0.1139E+02   0.1008E-01
  0.1139E+02   0.9896E-02
  0.1140E+02   0.9693E-02
  0.1140E+02   0.9476E-02
  0.1141E+02   0.9244E-02
  0.1142E+02   0.9000E-02
  0.1142E+02   0.8748E-02
  0.1143E+02   0.8493E-02
  0.1143E+02   0.8240E-02
  0.1144E+02   0.7995E-02
  0.1144E+02   0.7762E-02
  0.1145E+02   0.7546E-02
  0.1145E+02   0.7347E-02
  0.1146E+02   0.7169E-02
  0.1146E+02   0.7012E-02
  0.1146E+02   0.6876E-02
  0.1147E+02   0.6761E-02
  0.1147E+02   0.6667E-02
  0.1148E+02   0.6591E-02
  0.1148E+02   0.6532E-02
  0.1149E+02   0.6487E-02
  0.1150E+02   0.6451E-02
  0.1150E+02   0.6420E-02
  0.1151E+02   0.6389E-02
  0.1151E+02   0.6354E-02
  0.1152E+02   0.6311E-02
  0.1152E+02   0.6258E-02
  0.1153E+02   0.6192E-02
  0.1153E+02   0.6114E-02
  0.1154E+02   0.6026E-02
  0.1154E+02   0.5929E-02
  0.1154E+02   0.5828E-02
  0.1155E+02   0.5727E-02
  0.1155E+02   0.5633E-02
  0.1156E+02   0.5549E-02
  0.1156E+02   0.5480E-02
  0.1157E+02   0.5427E-02
  0.1158E+02   0.5390E-02
  0.1158E+02   0.5365E-02
  0.1159E+02   0.5349E-02
  0.1159E+02   0.5338E-02
  0.1160E+02   0.5329E-02
  0.1160E+02   0.5319E-02
  0.1161E+02   0.5305E-02
  0.1161E+02   0.5287E-02
  0.1162E+02   0.5262E-02
  0.1162E+02   0.5228E-02
  0.1162E+02   0.5185E-02
  0.1163E+02   0.5133E-02
  0.1163E+02   0.5073E-02
  0.1164E+02   0.5006E-02
  0.1164E+02   0.4932E-02
  0.1165E+02   0.4852E-02
  0.1165E+02   0.4766E-02
  0.1166E+02   0.4676E-02
  0.1167E+02   0.4581E-02
  0.1167E+02   0.4481E-02
  0.1168E+02   0.4378E-02
  0.1168E+02   0.4274E-02
  0.1169E+02   0.4169E-02
  0.1169E+02   0.4066E-02
  0.1170E+02   0.3965E-02
  0.1170E+02   0.3869E-02
  0.1171E+02   0.3779E-02
  0.1171E+02   0.3696E-02
  0.1171E+02   0.3621E-02
  0.1172E+02   0.3557E-02
  0.1172E+02   0.3502E-02
  0.1173E+02   0.3456E-02
  0.1173E+02   0.3418E-02
  0.1174E+02   0.3388E-02
  0.1175E+02   0.3364E-02
  0.1175E+02   0.3346E-02
  0.1176E+02   0.3334E-02
  0.1176E+02   0.3329E-02
  0.1177E+02   0.3332E-02
  0.1177E+02   0.3345E-02
  0.1178E+02   0.3368E-02
  0.1178E+02   0.3403E-02
  0.1179E+02   0.3451E-02
  0.1179E+02   0.3512E-02
  0.1179E+02   0.3586E-02
  0.1180E+02   0.3671E-02
  0.1180E+02   0.3766E-02
  0.1181E+02   0.3869E-02
  0.1181E+02   0.3978E-02
  0.1182E+02   0.4091E-02
  0.1183E+02   0.4204E-02
  0.1183E+02   0.4314E-02
  0.1184E+02   0.4420E-02
  0.1184E+02   0.4517E-02
  0.1185E+02   0.4605E-02
  0.1185E+02   0.4681E-02
  0.1186E+02   0.4743E-02
  0.1186E+02   0.4788E-02
  0.1187E+02   0.4815E-02
  0.1187E+02   0.4823E-02
  0.1188E+02   0.4810E-02
  0.1188E+02   0.4777E-02
  0.1188E+02   0.4725E-02
  0.1189E+02   0.4657E-02
  0.1189E+02   0.4575E-02
  0.1190E+02   0.4483E-02
  0.1190E+02   0.4382E-02
  0.1191E+02   0.4276E-02
  0.1192E+02   0.4166E-02
  0.1192E+02   0.4053E-02
  0.1193E+02   0.3940E-02
  0.1193E+02   0.3829E-02
  0.1194E+02   0.3719E-02
  0.1194E+02   0.3615E-02
  0.1195E+02   0.3517E-02
  0.1195E+02   0.3426E-02
  0.1196E+02   0.3344E-02
  0.1196E+02   0.3269E-02
  0.1196E+02   0.3202E-02
  0.1197E+02   0.3141E-02
  0.1197E+02   0.3086E-02
  0.1198E+02   0.3037E-02
  0.1198E+02   0.2994E-02
  0.1199E+02   0.2955E-02
  0.1200E+02   0.2921E-02
  0.1200E+02   0.2893E-02
  0.1201E+02   0.2871E-02
  0.1201E+02   0.2854E-02
  0.1202E+02   0.2844E-02
  0.1202E+02   0.2839E-02
  0.1203E+02   0.2841E-02
  0.1203E+02   0.2849E-02
  0.1204E+02   0.2861E-02
  0.1204E+02   0.2878E-02
  0.1204E+02   0.2898E-02
  0.1205E+02   0.2921E-02
  0.1205E+02   0.2947E-02
  0.1206E+02   0.2974E-02
  0.1206E+02   0.3000E-02
  0.1207E+02   0.3025E-02
  0.1208E+02   0.3045E-02
  0.1208E+02   0.3058E-02
  0.1209E+02   0.3062E-02
  0.1209E+02   0.3055E-02
  0.1210E+02   0.3035E-02
  0.1210E+02   0.3002E-02
  0.1211E+02   0.2955E-02
  0.1211E+02   0.2896E-02
  0.1212E+02   0.2827E-02
  0.1212E+02   0.2749E-02
  0.1212E+02   0.2665E-02
  0.1213E+02   0.2577E-02
  0.1213E+02   0.2488E-02
  0.1214E+02   0.2399E-02
  0.1214E+02   0.2312E-02
  0.1215E+02   0.2230E-02
  0.1216E+02   0.2154E-02
  0.1216E+02   0.2088E-02
  0.1217E+02   0.2033E-02
  0.1217E+02   0.1992E-02
  0.1218E+02   0.1967E-02
  0.1218E+02   0.1961E-02
  0.1219E+02   0.1974E-02
  0.1219E+02   0.2006E-02
  0.1220E+02   0.2055E-02
  0.1220E+02   0.2119E-02
  0.1221E+02   0.2197E-02
  0.1221E+02   0.2287E-02
  0.1221E+02   0.2388E-02
  0.1222E+02   0.2499E-02
  0.1222E+02   0.2622E-02
  0.1223E+02   0.2759E-02
  0.1223E+02   0.2909E-02
  0.1224E+02   0.3075E-02
  0.1225E+02   0.3255E-02
  0.1225E+02   0.3448E-02
  0.1226E+02   0.3651E-02
  0.1226E+02   0.3858E-02
  0.1227E+02   0.4064E-02
  0.1227E+02   0.4263E-02
  0.1228E+02   0.4449E-02
  0.1228E+02   0.4619E-02
  0.1229E+02   0.4771E-02
  0.1229E+02   0.4906E-02
  0.1229E+02   0.5025E-02
  0.1230E+02   0.5133E-02
  0.1230E+02   0.5235E-02
  0.1231E+02   0.5334E-02
  0.1231E+02   0.5435E-02
  0.1232E+02   0.5541E-02
  0.1233E+02   0.5655E-02
  0.1233E+02   0.5777E-02
  0.1234E+02   0.5909E-02
  0.1234E+02   0.6049E-02
  0.1235E+02   0.6197E-02
  0.1235E+02   0.6351E-02
  0.1236E+02   0.6512E-02
  0.1236E+02   0.6675E-02
  0.1237E+02   0.6839E-02
  0.1237E+02   0.7002E-02
  0.1238E+02   0.7159E-02
  0.1238E+02   0.7308E-02
  0.1238E+02   0.7447E-02
  0.1239E+02   0.7571E-02
  0.1239E+02   0.7676E-02
  0.1240E+02   0.7760E-02
  0.1241E+02   0.7819E-02
  0.1241E+02   0.7851E-02
  0.1242E+02   0.7857E-02
  0.1242E+02   0.7838E-02
  0.1243E+02   0.7796E-02
  0.1243E+02   0.7732E-02
  0.1244E+02   0.7652E-02
  0.1244E+02   0.7559E-02
  0.1245E+02   0.7458E-02
  0.1245E+02   0.7356E-02
  0.1246E+02   0.7259E-02
  0.1246E+02   0.7174E-02
  0.1246E+02   0.7106E-02
  0.1247E+02   0.7058E-02
  0.1247E+02   0.7031E-02
  0.1248E+02   0.7025E-02
  0.1248E+02   0.7036E-02
  0.1249E+02   0.7059E-02
  0.1250E+02   0.7091E-02
  0.1250E+02   0.7125E-02
  0.1251E+02   0.7156E-02
  0.1251E+02   0.7183E-02
  0.1252E+02   0.7202E-02
  0.1252E+02   0.7212E-02
  0.1253E+02   0.7215E-02
  0.1253E+02   0.7210E-02
  0.1254E+02   0.7200E-02
  0.1254E+02   0.7186E-02
  0.1254E+02   0.7170E-02
  0.1255E+02   0.7153E-02
  0.1255E+02   0.7140E-02
  0.1256E+02   0.7132E-02
  0.1256E+02   0.7132E-02
  0.1257E+02   0.7141E-02
  0.1258E+02   0.7158E-02
  0.1258E+02   0.7181E-02
  0.1259E+02   0.7206E-02
  0.1259E+02   0.7231E-02
  0.1260E+02   0.7252E-02
  0.1260E+02   0.7267E-02
  0.1261E+02   0.7276E-02
  0.1261E+02   0.7278E-02
  0.1262E+02   0.7274E-02
  0.1262E+02   0.7265E-02
  0.1262E+02   0.7250E-02
  0.1263E+02   0.7229E-02
  0.1263E+02   0.7202E-02
  0.1264E+02   0.7167E-02
  0.1264E+02   0.7123E-02
  0.1265E+02   0.7069E-02
  0.1266E+02   0.7005E-02
  0.1266E+02   0.6933E-02
  0.1267E+02   0.6858E-02
  0.1267E+02   0.6786E-02
  0.1268E+02   0.6725E-02
  0.1268E+02   0.6680E-02
  0.1269E+02   0.6656E-02
  0.1269E+02   0.6654E-02
  0.1270E+02   0.6675E-02
  0.1270E+02   0.6716E-02
  0.1271E+02   0.6776E-02
  0.1271E+02   0.6852E-02
  0.1271E+02   0.6939E-02
  0.1272E+02   0.7034E-02
  0.1272E+02   0.7135E-02
  0.1273E+02   0.7240E-02
  0.1273E+02   0.7346E-02
  0.1274E+02   0.7452E-02
  0.1275E+02   0.7558E-02
  0.1275E+02   0.7663E-02
  0.1276E+02   0.7765E-02
  0.1276E+02   0.7864E-02
  0.1277E+02   0.7958E-02
  0.1277E+02   0.8046E-02
  0.1278E+02   0.8124E-02
  0.1278E+02   0.8193E-02
  0.1279E+02   0.8248E-02
  0.1279E+02   0.8289E-02
  0.1279E+02   0.8315E-02
  0.1280E+02   0.8322E-02
  0.1280E+02   0.8310E-02
  0.1281E+02   0.8278E-02
  0.1281E+02   0.8224E-02
  0.1282E+02   0.8151E-02
  0.1283E+02   0.8059E-02
  0.1283E+02   0.7951E-02
  0.1284E+02   0.7829E-02
  0.1284E+02   0.7697E-02
  0.1285E+02   0.7559E-02
  0.1285E+02   0.7419E-02
  0.1286E+02   0.7279E-02
  0.1286E+02   0.7141E-02
  0.1287E+02   0.7008E-02
  0.1287E+02   0.6877E-02
  0.1288E+02   0.6747E-02
  0.1288E+02   0.6616E-02
  0.1288E+02   0.6482E-02
  0.1289E+02   0.6343E-02
  0.1289E+02   0.6199E-02
  0.1290E+02   0.6051E-02
  0.1291E+02   0.5901E-02
  0.1291E+02   0.5753E-02
  0.1292E+02   0.5609E-02
  0.1292E+02   0.5472E-02
  0.1293E+02   0.5343E-02
  0.1293E+02   0.5222E-02
  0.1294E+02   0.5108E-02
  0.1294E+02   0.4999E-02
  0.1295E+02   0.4893E-02
  0.1295E+02   0.4788E-02
  0.1296E+02   0.4684E-02
  0.1296E+02   0.4577E-02
  0.1296E+02   0.4468E-02
  0.1297E+02   0.4356E-02
  0.1297E+02   0.4240E-02
  0.1298E+02   0.4122E-02
  0.1298E+02   0.4004E-02
  0.1299E+02   0.3887E-02
  0.1300E+02   0.3775E-02
  0.1300E+02   0.3671E-02
  0.1301E+02   0.3577E-02
  0.1301E+02   0.3497E-02
  0.1302E+02   0.3431E-02
  0.1302E+02   0.3380E-02
  0.1303E+02   0.3345E-02
  0.1303E+02   0.3325E-02
  0.1304E+02   0.3321E-02
  0.1304E+02   0.3335E-02
  0.1304E+02   0.3367E-02
  0.1305E+02   0.3418E-02
  0.1305E+02   0.3489E-02
  0.1306E+02   0.3580E-02
  0.1306E+02   0.3690E-02
  0.1307E+02   0.3815E-02
  0.1308E+02   0.3952E-02
  0.1308E+02   0.4098E-02
  0.1309E+02   0.4247E-02
  0.1309E+02   0.4395E-02
  0.1310E+02   0.4537E-02
  0.1310E+02   0.4670E-02
  0.1311E+02   0.4790E-02
  0.1311E+02   0.4894E-02
  0.1312E+02   0.4979E-02
  0.1312E+02   0.5047E-02
  0.1312E+02   0.5096E-02
  0.1313E+02   0.5129E-02
  0.1313E+02   0.5150E-02
  0.1314E+02   0.5161E-02
  0.1314E+02   0.5167E-02
  0.1315E+02   0.5172E-02
  0.1316E+02   0.5178E-02
  0.1316E+02   0.5189E-02
  0.1317E+02   0.5207E-02
  0.1317E+02   0.5232E-02
  0.1318E+02   0.5262E-02
  0.1318E+02   0.5296E-02
  0.1319E+02   0.5330E-02
  0.1319E+02   0.5361E-02
  0.1320E+02   0.5386E-02
  0.1320E+02   0.5406E-02
  0.1321E+02   0.5422E-02
  0.1321E+02   0.5437E-02
  0.1321E+02   0.5455E-02
  0.1322E+02   0.5480E-02
  0.1322E+02   0.5515E-02
  0.1323E+02   0.5563E-02
  0.1323E+02   0.5626E-02
  0.1324E+02   0.5704E-02
  0.1325E+02   0.5799E-02
  0.1325E+02   0.5910E-02
  0.1326E+02   0.6035E-02
  0.1326E+02   0.6171E-02
  0.1327E+02   0.6316E-02
  0.1327E+02   0.6465E-02
  0.1328E+02   0.6613E-02
  0.1328E+02   0.6758E-02
  0.1329E+02   0.6895E-02
  0.1329E+02   0.7022E-02
  0.1329E+02   0.7136E-02
  0.1330E+02   0.7237E-02
  0.1330E+02   0.7323E-02
  0.1331E+02   0.7394E-02
  0.1331E+02   0.7451E-02
  0.1332E+02   0.7494E-02
  0.1333E+02   0.7524E-02
  0.1333E+02   0.7545E-02
  0.1334E+02   0.7560E-02
  0.1334E+02   0.7571E-02
  0.1335E+02   0.7585E-02
  0.1335E+02   0.7603E-02
  0.1336E+02   0.7629E-02
  0.1336E+02   0.7664E-02
  0.1337E+02   0.7708E-02
  0.1337E+02   0.7763E-02
  0.1338E+02   0.7828E-02
  0.1338E+02   0.7902E-02
  0.1338E+02   0.7987E-02
  0.1339E+02   0.8081E-02
  0.1339E+02   0.8185E-02
  0.1340E+02   0.8299E-02
  0.1341E+02   0.8421E-02
  0.1341E+02   0.8552E-02
  0.1342E+02   0.8688E-02
  0.1342E+02   0.8829E-02
  0.1343E+02   0.8971E-02
  0.1343E+02   0.9113E-02
  0.1344E+02   0.9252E-02
  0.1344E+02   0.9388E-02
  0.1345E+02   0.9519E-02
  0.1345E+02   0.9644E-02
  0.1346E+02   0.9764E-02
  0.1346E+02   0.9879E-02
  0.1346E+02   0.9988E-02
  0.1347E+02   0.1009E-01
  0.1347E+02   0.1019E-01
  0.1348E+02   0.1029E-01
  0.1348E+02   0.1038E-01
  0.1349E+02   0.1047E-01
  0.1350E+02   0.1054E-01
  0.1350E+02   0.1061E-01
  0.1351E+02   0.1065E-01
  0.1351E+02   0.1068E-01
  0.1352E+02   0.1067E-01
  0.1352E+02   0.1064E-01
  0.1353E+02   0.1058E-01
  0.1353E+02   0.1049E-01
  0.1354E+02   0.1038E-01
  0.1354E+02   0.1025E-01
  0.1354E+02   0.1011E-01
  0.1355E+02   0.9959E-02
  0.1355E+02   0.9804E-02
  0.1356E+02   0.9645E-02
  0.1356E+02   0.9481E-02
  0.1357E+02   0.9311E-02
  0.1358E+02   0.9133E-02
  0.1358E+02   0.8944E-02
  0.1359E+02   0.8746E-02
  0.1359E+02   0.8538E-02
  0.1360E+02   0.8324E-02
  0.1360E+02   0.8106E-02
  0.1361E+02   0.7886E-02
  0.1361E+02   0.7666E-02
  0.1362E+02   0.7448E-02
  0.1362E+02   0.7235E-02
  0.1362E+02   0.7028E-02
  0.1363E+02   0.6830E-02
  0.1363E+02   0.6641E-02
  0.1364E+02   0.6462E-02
  0.1364E+02   0.6293E-02
  0.1365E+02   0.6135E-02
  0.1366E+02   0.5988E-02
  0.1366E+02   0.5851E-02
  0.1367E+02   0.5725E-02
  0.1367E+02   0.5610E-02
  0.1368E+02   0.5507E-02
  0.1368E+02   0.5417E-02
  0.1369E+02   0.5340E-02
  0.1369E+02   0.5276E-02
  0.1370E+02   0.5226E-02
  0.1370E+02   0.5188E-02
  0.1371E+02   0.5161E-02
  0.1371E+02   0.5143E-02
  0.1371E+02   0.5134E-02
  0.1372E+02   0.5131E-02
  0.1372E+02   0.5134E-02
  0.1373E+02   0.5144E-02
  0.1373E+02   0.5159E-02
  0.1374E+02   0.5181E-02
  0.1375E+02   0.5211E-02
  0.1375E+02   0.5250E-02
  0.1376E+02   0.5299E-02
  0.1376E+02   0.5358E-02
  0.1377E+02   0.5428E-02
  0.1377E+02   0.5508E-02
  0.1378E+02   0.5599E-02
  0.1378E+02   0.5699E-02
  0.1379E+02   0.5806E-02
  0.1379E+02   0.5920E-02
  0.1379E+02   0.6040E-02
  0.1380E+02   0.6166E-02
  0.1380E+02   0.6297E-02
  0.1381E+02   0.6433E-02
  0.1381E+02   0.6570E-02
  0.1382E+02   0.6707E-02
  0.1383E+02   0.6839E-02
  0.1383E+02   0.6963E-02
  0.1384E+02   0.7076E-02
  0.1384E+02   0.7176E-02
  0.1385E+02   0.7263E-02
  0.1385E+02   0.7336E-02
  0.1386E+02   0.7398E-02
  0.1386E+02   0.7450E-02
  0.1387E+02   0.7494E-02
  0.1387E+02   0.7533E-02
  0.1388E+02   0.7569E-02
  0.1388E+02   0.7604E-02
  0.1388E+02   0.7641E-02
  0.1389E+02   0.7681E-02
  0.1389E+02   0.7727E-02
  0.1390E+02   0.7781E-02
  0.1391E+02   0.7843E-02
  0.1391E+02   0.7914E-02
  0.1392E+02   0.7993E-02
  0.1392E+02   0.8080E-02
  0.1393E+02   0.8175E-02
  0.1393E+02   0.8278E-02
  0.1394E+02   0.8390E-02
  0.1394E+02   0.8509E-02
  0.1395E+02   0.8634E-02
  0.1395E+02   0.8763E-02
  0.1396E+02   0.8893E-02
  0.1396E+02   0.9021E-02
  0.1396E+02   0.9144E-02
  0.1397E+02   0.9263E-02
  0.1397E+02   0.9375E-02
  0.1398E+02   0.9481E-02
  0.1398E+02   0.9583E-02
  0.1399E+02   0.9680E-02
  0.1400E+02   0.9774E-02
  0.1400E+02   0.9865E-02
  0.1401E+02   0.9952E-02
  0.1401E+02   0.1004E-01
  0.1402E+02   0.1011E-01
  0.1402E+02   0.1019E-01
  0.1403E+02   0.1026E-01
  0.1403E+02   0.1032E-01
  0.1404E+02   0.1038E-01
  0.1404E+02   0.1043E-01
  0.1404E+02   0.1048E-01
  0.1405E+02   0.1052E-01
  0.1405E+02   0.1056E-01
  0.1406E+02   0.1059E-01
  0.1406E+02   0.1063E-01
  0.1407E+02   0.1066E-01
  0.1408E+02   0.1070E-01
  0.1408E+02   0.1073E-01
  0.1409E+02   0.1077E-01
  0.1409E+02   0.1079E-01
  0.1410E+02   0.1080E-01
  0.1410E+02   0.1079E-01
  0.1411E+02   0.1076E-01
  0.1411E+02   0.1070E-01
  0.1412E+02   0.1062E-01
  0.1412E+02   0.1050E-01
  0.1412E+02   0.1036E-01
  0.1413E+02   0.1021E-01
  0.1413E+02   0.1004E-01
  0.1414E+02   0.9856E-02
  0.1414E+02   0.9670E-02
  0.1415E+02   0.9481E-02
  0.1416E+02   0.9292E-02
  0.1416E+02   0.9104E-02
  0.1417E+02   0.8918E-02
  0.1417E+02   0.8736E-02
  0.1418E+02   0.8560E-02
  0.1418E+02   0.8392E-02
  0.1419E+02   0.8236E-02
  0.1419E+02   0.8094E-02
  0.1420E+02   0.7970E-02
  0.1420E+02   0.7865E-02
  0.1421E+02   0.7783E-02
  0.1421E+02   0.7722E-02
  0.1421E+02   0.7684E-02
  0.1422E+02   0.7666E-02
  0.1422E+02   0.7665E-02
  0.1423E+02   0.7678E-02
  0.1423E+02   0.7697E-02
  0.1424E+02   0.7718E-02
  0.1425E+02   0.7733E-02
  0.1425E+02   0.7739E-02
  0.1426E+02   0.7732E-02
  0.1426E+02   0.7712E-02
  0.1427E+02   0.7680E-02
  0.1427E+02   0.7642E-02
  0.1428E+02   0.7602E-02
  0.1428E+02   0.7566E-02
  0.1429E+02   0.7537E-02
  0.1429E+02   0.7520E-02
  0.1429E+02   0.7513E-02
  0.1430E+02   0.7515E-02
  0.1430E+02   0.7525E-02
  0.1431E+02   0.7538E-02
  0.1431E+02   0.7550E-02
  0.1432E+02   0.7559E-02
  0.1433E+02   0.7563E-02
  0.1433E+02   0.7559E-02
  0.1434E+02   0.7548E-02
  0.1434E+02   0.7528E-02
  0.1435E+02   0.7501E-02
  0.1435E+02   0.7467E-02
  0.1436E+02   0.7427E-02
  0.1436E+02   0.7383E-02
  0.1437E+02   0.7339E-02
  0.1437E+02   0.7296E-02
  0.1438E+02   0.7260E-02
  0.1438E+02   0.7232E-02
  0.1438E+02   0.7217E-02
  0.1439E+02   0.7217E-02
  0.1439E+02   0.7231E-02
  0.1440E+02   0.7259E-02
  0.1441E+02   0.7300E-02
  0.1441E+02   0.7352E-02
  0.1442E+02   0.7411E-02
  0.1442E+02   0.7475E-02
  0.1443E+02   0.7542E-02
  0.1443E+02   0.7607E-02
  0.1444E+02   0.7670E-02
  0.1444E+02   0.7729E-02
  0.1445E+02   0.7783E-02
  0.1445E+02   0.7835E-02
  0.1446E+02   0.7887E-02
  0.1446E+02   0.7945E-02
  0.1446E+02   0.8013E-02
  0.1447E+02   0.8096E-02
  0.1447E+02   0.8197E-02
  0.1448E+02   0.8317E-02
  0.1448E+02   0.8457E-02
  0.1449E+02   0.8614E-02
  0.1450E+02   0.8787E-02
  0.1450E+02   0.8972E-02
  0.1451E+02   0.9166E-02
  0.1451E+02   0.9366E-02
  0.1452E+02   0.9571E-02
  0.1452E+02   0.9775E-02
  0.1453E+02   0.9977E-02
  0.1453E+02   0.1017E-01
  0.1454E+02   0.1036E-01
  0.1454E+02   0.1053E-01
  0.1454E+02   0.1068E-01
  0.1455E+02   0.1081E-01
  0.1455E+02   0.1093E-01
  0.1456E+02   0.1101E-01
  0.1456E+02   0.1107E-01
  0.1457E+02   0.1110E-01
  0.1458E+02   0.1109E-01
  0.1458E+02   0.1104E-01
  0.1459E+02   0.1095E-01
  0.1459E+02   0.1083E-01
  0.1460E+02   0.1067E-01
  0.1460E+02   0.1048E-01
  0.1461E+02   0.1025E-01
  0.1461E+02   0.9988E-02
  0.1462E+02   0.9705E-02
  0.1462E+02   0.9403E-02
  0.1462E+02   0.9086E-02
  0.1463E+02   0.8760E-02
  0.1463E+02   0.8430E-02
  0.1464E+02   0.8098E-02
  0.1464E+02   0.7768E-02
  0.1465E+02   0.7441E-02
  0.1466E+02   0.7119E-02
  0.1466E+02   0.6804E-02
  0.1467E+02   0.6499E-02
  0.1467E+02   0.6204E-02
  0.1468E+02   0.5922E-02
  0.1468E+02   0.5652E-02
  0.1469E+02   0.5395E-02
  0.1469E+02   0.5152E-02
  0.1470E+02   0.4924E-02
  0.1470E+02   0.4710E-02
  0.1471E+02   0.4512E-02
  0.1471E+02   0.4329E-02
  0.1471E+02   0.4162E-02
  0.1472E+02   0.4011E-02
  0.1472E+02   0.3874E-02
  0.1473E+02   0.3751E-02
  0.1473E+02   0.3642E-02
  0.1474E+02   0.3544E-02
  0.1475E+02   0.3458E-02
  0.1475E+02   0.3380E-02
  0.1476E+02   0.3309E-02
  0.1476E+02   0.3243E-02
  0.1477E+02   0.3181E-02
  0.1477E+02   0.3121E-02
  0.1478E+02   0.3062E-02
  0.1478E+02   0.3003E-02
  0.1479E+02   0.2942E-02
  0.1479E+02   0.2877E-02
  0.1479E+02   0.2808E-02
  0.1480E+02   0.2733E-02
  0.1480E+02   0.2653E-02
  0.1481E+02   0.2567E-02
  0.1481E+02   0.2476E-02
  0.1482E+02   0.2381E-02
  0.1483E+02   0.2284E-02
  0.1483E+02   0.2186E-02
  0.1484E+02   0.2091E-02
  0.1484E+02   0.1999E-02
  0.1485E+02   0.1914E-02
  0.1485E+02   0.1835E-02
  0.1486E+02   0.1763E-02
  0.1486E+02   0.1701E-02
  0.1487E+02   0.1647E-02
  0.1487E+02   0.1605E-02
  0.1488E+02   0.1573E-02
  0.1488E+02   0.1552E-02
  0.1488E+02   0.1541E-02
  0.1489E+02   0.1539E-02
  0.1489E+02   0.1545E-02
  0.1490E+02   0.1556E-02
  0.1491E+02   0.1573E-02
  0.1491E+02   0.1593E-02
  0.1492E+02   0.1618E-02
  0.1492E+02   0.1647E-02
  0.1493E+02   0.1681E-02
  0.1493E+02   0.1719E-02
  0.1494E+02   0.1761E-02
  0.1494E+02   0.1810E-02
  0.1495E+02   0.1863E-02
  0.1495E+02   0.1921E-02
  0.1496E+02   0.1982E-02
  0.1496E+02   0.2046E-02
  0.1496E+02   0.2111E-02
  0.1497E+02   0.2175E-02
  0.1497E+02   0.2239E-02
  0.1498E+02   0.2303E-02
  0.1498E+02   0.2367E-02
  0.1499E+02   0.2431E-02
  0.1500E+02   0.2498E-02
  0.1500E+02   0.2567E-02
